File: Non-charring/PMMA/DBI_Lund/DBI_Lund_TGA_N2_20K_1.csv
Time,Temperature,Mass
[s],[K],[mg]
0.00,299.357,5.80E+00
10.00,299.351,5.79E+00
20.00,299.605,5.79E+00
30.00,300.466,5.79E+00
40.00,302.1607,5.79312
50.00,304.741,5.80597
60.00,308.067,5.77891
70.00,311.936,5.79278
80.00,316.128,5.79459
90.00,320.463,5.79424
100.00,324.8,5.7823
110.00,329.049,5.78444
120.00,333.177,5.79131
130.00,337.175,5.78501
140.00,341.048,5.78444
150.00,344.819,5.78038
160.00,348.506,5.77948
170.00,352.124,5.78263
180.00,355.716,5.78218
190.00,359.295,5.77587
200.00,362.876,5.78027
210.00,366.458,5.77993
220.00,370.034,5.77813
230.00,373.605,5.77914
240.00,377.147,5.77722
250.00,380.652,5.77903
260.00,384.117,5.77519
270.00,387.55,5.77835
280.00,390.974,5.78399
290.00,394.347,5.77069
300.00,397.725,5.77147
310.00,401.0903,5.77316
320.00,404.449,5.77261
330.00,407.802,5.77474
340.00,411.152,5.7619
350.00,414.503,5.77114
360.00,417.849,5.76392
370.00,421.202,5.76573
380.00,424.551,5.75964
390.00,427.889,5.75931
400.00,431.23,5.75987
410.00,434.561,5.75479
420.00,437.879,5.75096
430.00,441.201,5.75029
440.00,444.518,5.74735
450.00,447.84,5.74239
460.00,451.156,5.73766
470.00,454.482,5.73867
480.00,457.807,5.73146
490.00,461.141,5.71568
500.00,464.483,5.71613
510.00,467.825,5.71884
520.00,471.162,5.70124
530.00,474.5011,5.699
540.00,477.835,5.6928
550.00,481.168,5.68738
560.00,484.494,5.67386
570.00,487.83,5.66867
580.00,491.163,5.64748
590.00,494.5,5.64511
600.00,497.824,5.63598
610.00,501.147,5.61908
620.00,504.474,5.61693
630.00,507.801,5.60622
640.00,511.13,5.60138
650.00,514.45,5.59111
660.00,517.7878,5.59698
670.00,521.114,5.58841
680.00,524.447,5.58774
690.00,527.773,5.58514
700.00,531.106,5.57444
710.00,534.444,5.57613
720.00,537.777,5.56564
730.00,541.126,5.56407
740.00,544.482,5.55358
750.00,547.844,5.54918
760.00,551.1979,5.53983
770.00,554.5457,5.53453
780.00,557.879,5.51627
790.00,561.207,5.50184
800.00,564.533,5.49136
810.00,567.847,5.4625
820.00,571.1572,5.44378
830.00,574.462,5.42778
840.00,577.775,5.40523
850.00,581.081,5.3695
860.00,584.389,5.35361
870.00,587.703,5.31946
880.00,591.012,5.28992
890.00,594.337,5.26151
900.00,597.668,5.21113
910.00,601.005,5.16829
920.00,604.332,5.10437
930.00,607.658,5.03944
940.00,610.991,4.95569
950.00,614.314,4.86033
960.00,617.6436,4.75064
970.00,620.967,4.597
980.00,624.2852,4.45057
990.00,627.6,4.27055
1000.00,630.92,4.06708
1010.00,634.233,3.83645
1020.00,637.555,3.58237
1030.00,640.877,3.30991
1040.00,644.207,3.02867
1050.00,647.54,2.73491
1060.00,650.882,2.44555
1070.00,654.234,2.16047
1080.00,657.5868,1.88813
1090.00,660.9393,1.5991
1100.00,664.287,1.32056
1110.00,667.641,1.05814
1120.00,670.991,0.8278398
1130.00,674.344,0.63429
1140.00,677.698,0.47118
1150.00,681.044,0.34278
1160.00,684.386,0.24799
1170.00,687.731,0.1817
1180.00,691.063,0.13774
1190.00,694.382,0.09478998
1200.00,697.723,0.06852004
1210.00,701.07,0.05916986
1220.00,704.392,0.04935974
1230.00,707.697,0.03325024
1240.00,710.989,0.03561026
1250.00,714.285,0.02783014
1260.00,717.591,0.02478978
1270.00,720.902,0.02231028
1280.00,724.225,0.01971014
1290.00,727.559,0.02220008
1300.00,730.895,0.0238902
1310.00,734.237,0.0244499
1320.00,737.58,0.01904024
1330.00,740.919,0.02208002
1340.00,744.267,0.01735012
1350.00,747.604,0.0157702
1360.00,750.94,0.02084984
1370.00,754.264,0.0224199
1380.00,757.6,0.01701024
1390.00,760.938,0.01938012
1400.00,764.2629,0.01769
1410.00,767.599,0.01756994
1420.00,770.9201,0.00911992
1430.00,774.2482,0.02083998
1440.00,777.578,0.00878004
1450.00,780.91,0.02635984
1460.00,784.246,0.01306972
1470.00,787.581,0.01305986
1480.00,790.914,0.01656016
1490.00,794.252,0.01644996
1500.00,797.588,0.01081004
1510.00,800.927,0.01644996
1520.00,804.266,0.01904024
1530.00,807.601,0.01262022
1540.00,810.932,0.01904024
1550.00,814.268,0.02196982
1560.00,817.5948,0.01341018
1570.00,820.92,0.0244499
1580.00,824.244,0.0265901
1590.00,827.565,0.00596994
1600.00,830.897,0.00935018
1610.00,834.229,0.01069984
1620.00,837.557,0.0021286
1630.00,840.8926,0.01002008
1640.00,844.229,0.00551
1650.00,847.565,0.01363
1660.00,850.901,0.0048372
1670.00,854.239,0.00720998
1680.00,857.574,0.01126012
1690.00,860.916,0.0051794
1700.00,864.25,0.01048002
1710.00,867.587,0.01002008
1720.00,870.92,0.01103972
1730.00,874.259,0.02760974
1740.00,877.594,0.00990988
1750.00,880.926,-0.0122902
1760.00,884.263,0.02062016
1770.00,887.599,0.0039382
1780.00,890.932,-0.0056492
1790.00,894.265,0.03775974
1800.00,897.601,0.03719018
1810.00,900.934,0.0006728
1820.00,904.266,0.01002008
1830.00,907.59,0.01690004
1840.00,910.92,-0.00879976
1850.00,914.255,-0.00666014
1860.00,917.598,0.01566
1870.00,920.936,-0.01038026
1880.00,924.275,0.00608014
1890.00,927.613,0.005742
1900.00,930.953,0.0178002
1910.00,934.292,0.0048372
1920.00,937.643,0.01271998
1930.00,940.9696,-0.01218
1940.00,944.302,0.00754
1950.00,947.634,0.0034916
1960.00,950.9671,-0.00845988
1970.00,954.296,0.01295024
1980.00,957.627,-0.01364972
1990.00,960.959,0.0046226
2000.00,964.288,0.01611008
2010.00,967.621,0.00730974
2020.00,970.955,0.00799008
2030.00,974.291,-0.0036192
2040.00,977.628,0.00856022
2050.00,980.966,-0.0040716
2060.00,984.3013,0.00348
2070.00,987.639,0.0048372
2080.00,990.98,0.01103972
2090.00,994.315,0.0051794
2100.00,997.655,0.00629996
2110.00,1000.99,0.01284004
2120.00,1004.33,0.0038222
2130.00,1007.66,0.0157702
2140.00,1011,0.0056318
2150.00,1014.34,0.00900972
2160.00,1017.67,0.0183599
2170.00,1021,0.0051794
2180.00,1024.34,0.01701024
2190.00,1027.67,0.0041586
2200.00,1031.01,0.00866984
2210.00,1034.34,0.00630982
2220.00,1037.68,-0.00733004
2230.00,1041.02,0.01914986
2240.00,1044.35,0.0117102
2250.00,1047.68,0.00675004
2260.00,1051.02,0.01329012
2270.00,1054.35,0.002581
2280.00,1057.69,0.0047212
2290.00,1061.03,0.02456996
2300.00,1064.37,-0.0045182
2310.00,1067.71,0.02354974
2320.00,1071.04,0.0052896
2330.00,1074.38,0.0050576
2340.00,1077.71,0.0030276
2350.00,1081.05,-0.002262
2360.00,1084.38,0.00697972
2370.00,1087.72,0.00787988
2380.00,1091.06,0.00866984
2390.00,1094.39,0.01498024
2400.00,1097.72,0.0056318
2410.00,1101.06,0.0114898
2420.00,1104.4,0.01059022
2430.00,1107.73,0.00799994
2440.00,1111.07,0.0017922
2450.00,1114.41,0.00732018
2460.00,1117.75,0.01183026
2470.00,1121.08,-0.0053012
2480.00,1124.42,0.00923998
2490.00,1127.76,0.0051794
2500.00,1131.09,0.0135198
2510.00,1134.43,0.0035902
2520.00,1137.78,0.01396002
2530.00,1141.11,0.01272984
2540.00,1144.44,0.03020002
2550.00,1147.77,0.02411002
2560.00,1151.1,0.0009976
2570.00,1154.43,-0.0047386
2580.00,1157.76,0.005742
2590.00,1161.08,0.01904024
2600.00,1164.4,0.0038222
2610.00,1167.73,0.0009976
2620.00,1171.05,-0.01657988
2630.00,1174.38,0.02478978
2640.00,1177.71,-0.0229999
2650.00,1181.03,-0.0016994
2660.00,1184.37,0.01611008
2670.00,1187.7,-0.004408
2680.00,1191.03,0.00923012
2690.00,1194.36,0.004611
2700.00,1197.69,0.02771994
2710.00,1201.02,-0.005191
2720.00,1204.35,0.00766006
2730.00,1207.69,0.01668022
2740.00,1211.02,0.0048314
2750.00,1214.34,0.01059022
2760.00,1217.68,0.0038222
2770.00,1221.01,0.0030392
2774.00,1222.36,0.0096802