File: PMMA/Calibration_Results/NIST_FSRI/Sensitivity/NIST_FSRI_Gasification_q50_R3_Mass_fluxT.csv
Time,Mass
[s],[g]
0.0,26.689
2.0,26.689
4.0,26.689
6.0,26.689
8.0,26.689
10.0,26.689
12.0,26.689
14.0,26.689
16.0,26.689
18.0,26.689
20.0,26.689
22.0,26.689
24.0,26.689
26.0,26.689
28.0,26.689
30.0,26.689
32.0,26.688
34.0,26.688
36.0,26.687
38.0,26.685
40.0,26.683
42.0,26.679
44.0,26.675
46.0,26.668
48.0,26.659
50.0,26.647
52.0,26.633
54.0,26.615
56.0,26.593
58.0,26.568
60.0,26.540
62.0,26.507
64.0,26.471
66.0,26.432
68.0,26.389
70.0,26.343
72.0,26.295
74.0,26.243
76.0,26.188
78.0,26.131
80.0,26.072
82.0,26.010
84.0,25.946
86.0,25.880
88.0,25.812
90.0,25.742
92.0,25.670
94.0,25.597
96.0,25.521
98.0,25.445
100.0,25.367
102.0,25.287
104.0,25.206
106.0,25.124
108.0,25.040
110.0,24.955
112.0,24.869
114.0,24.782
116.0,24.694
118.0,24.605
120.0,24.514
122.0,24.422
124.0,24.330
126.0,24.236
128.0,24.142
130.0,24.046
132.0,23.949
134.0,23.852
136.0,23.753
138.0,23.654
140.0,23.553
142.0,23.452
144.0,23.350
146.0,23.247
148.0,23.143
150.0,23.038
152.0,22.932
154.0,22.825
156.0,22.718
158.0,22.609
160.0,22.500
162.0,22.390
164.0,22.280
166.0,22.168
168.0,22.056
170.0,21.943
172.0,21.829
174.0,21.714
176.0,21.599
178.0,21.483
180.0,21.366
182.0,21.248
184.0,21.129
186.0,21.010
188.0,20.890
190.0,20.769
192.0,20.647
194.0,20.524
196.0,20.401
198.0,20.277
200.0,20.152
202.0,20.026
204.0,19.899
206.0,19.772
208.0,19.643
210.0,19.514
212.0,19.384
214.0,19.254
216.0,19.122
218.0,18.990
220.0,18.856
222.0,18.722
224.0,18.588
226.0,18.452
228.0,18.315
230.0,18.178
232.0,18.040
234.0,17.901
236.0,17.761
238.0,17.620
240.0,17.479
242.0,17.336
244.0,17.193
246.0,17.049
248.0,16.903
250.0,16.757
252.0,16.610
254.0,16.462
256.0,16.314
258.0,16.164
260.0,16.013
262.0,15.862
264.0,15.709
266.0,15.555
268.0,15.401
270.0,15.245
272.0,15.089
274.0,14.931
276.0,14.773
278.0,14.613
280.0,14.452
282.0,14.291
284.0,14.128
286.0,13.964
288.0,13.799
290.0,13.633
292.0,13.466
294.0,13.298
296.0,13.129
298.0,12.958
300.0,12.787
302.0,12.614
304.0,12.440
306.0,12.265
308.0,12.088
310.0,11.911
312.0,11.732
314.0,11.552
316.0,11.371
318.0,11.188
320.0,11.005
322.0,10.820
324.0,10.633
326.0,10.446
328.0,10.257
330.0,10.067
332.0,9.876
334.0,9.683
336.0,9.490
338.0,9.295
340.0,9.099
342.0,8.901
344.0,8.703
346.0,8.503
348.0,8.302
350.0,8.100
352.0,7.897
354.0,7.693
356.0,7.488
358.0,7.282
360.0,7.075
362.0,6.867
364.0,6.658
366.0,6.448
368.0,6.238
370.0,6.026
372.0,5.814
374.0,5.600
376.0,5.386
378.0,5.171
380.0,4.956
382.0,4.740
384.0,4.523
386.0,4.305
388.0,4.086
390.0,3.867
392.0,3.647
394.0,3.427
396.0,3.205
398.0,2.983
400.0,2.760
402.0,2.537
404.0,2.313
406.0,2.088
408.0,1.863
410.0,1.637
412.0,1.410
414.0,1.182
416.0,0.954
418.0,0.726
420.0,0.497
422.0,0.267
424.0,0.038
426.0,-0.192
428.0,-0.422
430.0,-0.650
432.0,-0.877
434.0,-1.101
436.0,-1.317
438.0,-1.511
440.0,-1.565
442.0,-1.565
444.0,-1.565
446.0,-1.565
448.0,-1.565
450.0,-1.565
452.0,-1.565
454.0,-1.565
456.0,-1.565
458.0,-1.565
460.0,-1.565
462.0,-1.565
464.0,-1.565
466.0,-1.565
468.0,-1.565
470.0,-1.565
472.0,-1.565
474.0,-1.565
476.0,-1.565
478.0,-1.565
480.0,-1.565
482.0,-1.565
484.0,-1.565
486.0,-1.565
488.0,-1.565
490.0,-1.565
492.0,-1.565
494.0,-1.565
496.0,-1.565
498.0,-1.565
500.0,-1.565