File: PMMA/Calibration_Results/NIST_FSRI/Sensitivity/NIST_FSRI_Gasification_q50_R3_Mass_simple.csv
Time,Mass
[s],[g]
0,26.690
2,26.690
4,26.690
6,26.690
8,26.690
10,26.690
12,26.690
14,26.690
16,26.690
18,26.690
20,26.690
22,26.690
24,26.690
26,26.690
28,26.689
30,26.688
32,26.686
34,26.684
36,26.680
38,26.675
40,26.667
42,26.656
44,26.642
46,26.625
48,26.604
50,26.579
52,26.550
54,26.516
56,26.479
58,26.438
60,26.394
62,26.346
64,26.295
66,26.241
68,26.184
70,26.125
72,26.063
74,25.998
76,25.932
78,25.864
80,25.793
82,25.721
84,25.647
86,25.572
88,25.494
90,25.416
92,25.335
94,25.254
96,25.171
98,25.087
100,25.001
102,24.915
104,24.827
106,24.738
108,24.648
110,24.557
112,24.465
114,24.372
116,24.278
118,24.183
120,24.087
122,23.990
124,23.892
126,23.793
128,23.694
130,23.593
132,23.492
134,23.390
136,23.287
138,23.183
140,23.078
142,22.973
144,22.866
146,22.759
148,22.651
150,22.543
152,22.433
154,22.323
156,22.212
158,22.100
160,21.987
162,21.874
164,21.760
166,21.645
168,21.529
170,21.413
172,21.295
174,21.177
176,21.058
178,20.939
180,20.818
182,20.697
184,20.575
186,20.453
188,20.329
190,20.205
192,20.080
194,19.954
196,19.827
198,19.699
200,19.571
202,19.442
204,19.312
206,19.181
208,19.050
210,18.917
212,18.784
214,18.650
216,18.515
218,18.379
220,18.243
222,18.105
224,17.967
226,17.828
228,17.688
230,17.547
232,17.405
234,17.263
236,17.119
238,16.975
240,16.829
242,16.683
244,16.536
246,16.388
248,16.239
250,16.089
252,15.938
254,15.786
256,15.633
258,15.479
260,15.324
262,15.168
264,15.011
266,14.854
268,14.695
270,14.535
272,14.373
274,14.211
276,14.048
278,13.884
280,13.718
282,13.552
284,13.384
286,13.215
288,13.045
290,12.874
292,12.702
294,12.528
296,12.354
298,12.178
300,12.001
302,11.822
304,11.642
306,11.462
308,11.279
310,11.096
312,10.911
314,10.725
316,10.538
318,10.349
320,10.159
322,9.968
324,9.776
326,9.582
328,9.387
330,9.191
332,8.994
334,8.795
336,8.595
338,8.394
340,8.192
342,7.989
344,7.784
346,7.579
348,7.372
350,7.165
352,6.956
354,6.747
356,6.537
358,6.325
360,6.113
362,5.900
364,5.686
366,5.471
368,5.256
370,5.039
372,4.822
374,4.605
376,4.386
378,4.167
380,3.947
382,3.726
384,3.505
386,3.282
388,3.060
390,2.836
392,2.612
394,2.387
396,2.161
398,1.935
400,1.707
402,1.480
404,1.251
406,1.022
408,0.793
410,0.563
412,0.332
414,0.101
416,-0.130
418,-0.361
420,-0.591
422,-0.820
424,-1.046
426,-1.266
428,-1.470
430,-1.565
432,-1.565
434,-1.565
436,-1.565
438,-1.565
440,-1.565
442,-1.565
444,-1.565
446,-1.565
448,-1.565
450,-1.565
452,-1.565
454,-1.565
456,-1.565
458,-1.565
460,-1.565
462,-1.565
464,-1.565
466,-1.565
468,-1.565
470,-1.565
472,-1.565
474,-1.565
476,-1.565
478,-1.565
480,-1.565
482,-1.565
484,-1.565
486,-1.565
488,-1.565
490,-1.565
492,-1.565
494,-1.565
496,-1.565
498,-1.565
500,-1.565