File: PMMA/Calibration_Results/NIST_FSRI/Sensitivity/NIST_FSRI_Gasification_q50_R3_Mass_simple_rho.csv
Time,Mass
[s],[g]
0.0,26.689
2.0,26.689
4.0,26.689
6.0,26.689
8.0,26.689
10.0,26.689
12.0,26.689
14.0,26.689
16.0,26.689
18.0,26.689
20.0,26.689
22.0,26.689
24.0,26.689
26.0,26.689
28.0,26.688
30.0,26.688
32.0,26.687
34.0,26.685
36.0,26.683
38.0,26.679
40.0,26.674
42.0,26.667
44.0,26.657
46.0,26.645
48.0,26.629
50.0,26.610
52.0,26.588
54.0,26.561
56.0,26.531
58.0,26.497
60.0,26.459
62.0,26.418
64.0,26.373
66.0,26.326
68.0,26.275
70.0,26.222
72.0,26.165
74.0,26.107
76.0,26.046
78.0,25.983
80.0,25.917
82.0,25.850
84.0,25.781
86.0,25.710
88.0,25.637
90.0,25.562
92.0,25.486
94.0,25.409
96.0,25.330
98.0,25.250
100.0,25.168
102.0,25.085
104.0,25.001
106.0,24.915
108.0,24.828
110.0,24.741
112.0,24.652
114.0,24.562
116.0,24.470
118.0,24.378
120.0,24.285
122.0,24.191
124.0,24.095
126.0,23.999
128.0,23.902
130.0,23.804
132.0,23.705
134.0,23.604
136.0,23.504
138.0,23.402
140.0,23.299
142.0,23.195
144.0,23.091
146.0,22.985
148.0,22.879
150.0,22.772
152.0,22.663
154.0,22.554
156.0,22.445
158.0,22.334
160.0,22.222
162.0,22.110
164.0,21.997
166.0,21.883
168.0,21.768
170.0,21.652
172.0,21.535
174.0,21.418
176.0,21.299
178.0,21.180
180.0,21.060
182.0,20.939
184.0,20.817
186.0,20.694
188.0,20.571
190.0,20.446
192.0,20.321
194.0,20.195
196.0,20.068
198.0,19.940
200.0,19.811
202.0,19.682
204.0,19.551
206.0,19.420
208.0,19.287
210.0,19.154
212.0,19.020
214.0,18.885
216.0,18.749
218.0,18.612
220.0,18.475
222.0,18.336
224.0,18.196
226.0,18.056
228.0,17.915
230.0,17.772
232.0,17.629
234.0,17.485
236.0,17.339
238.0,17.193
240.0,17.046
242.0,16.898
244.0,16.749
246.0,16.599
248.0,16.447
250.0,16.295
252.0,16.142
254.0,15.988
256.0,15.833
258.0,15.676
260.0,15.519
262.0,15.360
264.0,15.201
266.0,15.040
268.0,14.879
270.0,14.716
272.0,14.552
274.0,14.387
276.0,14.221
278.0,14.053
280.0,13.885
282.0,13.715
284.0,13.544
286.0,13.372
288.0,13.199
290.0,13.024
292.0,12.849
294.0,12.672
296.0,12.493
298.0,12.314
300.0,12.133
302.0,11.951
304.0,11.768
306.0,11.584
308.0,11.398
310.0,11.211
312.0,11.023
314.0,10.833
316.0,10.642
318.0,10.450
320.0,10.257
322.0,10.062
324.0,9.867
326.0,9.670
328.0,9.472
330.0,9.272
332.0,9.072
334.0,8.871
336.0,8.668
338.0,8.464
340.0,8.260
342.0,8.054
344.0,7.847
346.0,7.640
348.0,7.431
350.0,7.221
352.0,7.011
354.0,6.800
356.0,6.588
358.0,6.375
360.0,6.161
362.0,5.947
364.0,5.732
366.0,5.516
368.0,5.299
370.0,5.082
372.0,4.864
374.0,4.645
376.0,4.426
378.0,4.206
380.0,3.985
382.0,3.763
384.0,3.541
386.0,3.319
388.0,3.095
390.0,2.871
392.0,2.646
394.0,2.421
396.0,2.195
398.0,1.968
400.0,1.741
402.0,1.513
404.0,1.285
406.0,1.056
408.0,0.826
410.0,0.596
412.0,0.365
414.0,0.135
416.0,-0.096
418.0,-0.327
420.0,-0.557
422.0,-0.785
424.0,-1.011
426.0,-1.232
428.0,-1.438
430.0,-1.565
432.0,-1.565
434.0,-1.565
436.0,-1.565
438.0,-1.565
440.0,-1.565
442.0,-1.565
444.0,-1.565
446.0,-1.565
448.0,-1.565
450.0,-1.565
452.0,-1.565
454.0,-1.565
456.0,-1.565
458.0,-1.565
460.0,-1.565
462.0,-1.565
464.0,-1.565
466.0,-1.565
468.0,-1.565
470.0,-1.565
472.0,-1.565
474.0,-1.565
476.0,-1.565
478.0,-1.565
480.0,-1.565
482.0,-1.565
484.0,-1.565
486.0,-1.565
488.0,-1.565
490.0,-1.565
492.0,-1.565
494.0,-1.565
496.0,-1.565
498.0,-1.565
500.0,-1.565