File: PMMA/Calibration_Results/NIST_FSRI/Sensitivity/NIST_FSRI_Gasification_q50_R3_Mass_full_rho.csv
Time,Mass
[s],[g]
0.0,26.689
2.0,26.689
4.0,26.689
6.0,26.689
8.0,26.689
10.0,26.689
12.0,26.689
14.0,26.689
16.0,26.689
18.0,26.689
20.0,26.689
22.0,26.689
24.0,26.689
26.0,26.689
28.0,26.689
30.0,26.689
32.0,26.689
34.0,26.688
36.0,26.688
38.0,26.687
40.0,26.686
42.0,26.684
44.0,26.681
46.0,26.676
48.0,26.671
50.0,26.663
52.0,26.653
54.0,26.641
56.0,26.625
58.0,26.607
60.0,26.585
62.0,26.559
64.0,26.531
66.0,26.498
68.0,26.463
70.0,26.424
72.0,26.382
74.0,26.337
76.0,26.289
78.0,26.238
80.0,26.185
82.0,26.129
84.0,26.070
86.0,26.010
88.0,25.947
90.0,25.882
92.0,25.815
94.0,25.746
96.0,25.676
98.0,25.604
100.0,25.530
102.0,25.455
104.0,25.378
106.0,25.299
108.0,25.220
110.0,25.139
112.0,25.056
114.0,24.973
116.0,24.888
118.0,24.802
120.0,24.715
122.0,24.626
124.0,24.537
126.0,24.446
128.0,24.354
130.0,24.261
132.0,24.167
134.0,24.072
136.0,23.976
138.0,23.879
140.0,23.781
142.0,23.682
144.0,23.582
146.0,23.481
148.0,23.378
150.0,23.275
152.0,23.171
154.0,23.066
156.0,22.961
158.0,22.854
160.0,22.746
162.0,22.638
164.0,22.528
166.0,22.418
168.0,22.307
170.0,22.195
172.0,22.082
174.0,21.968
176.0,21.853
178.0,21.738
180.0,21.622
182.0,21.504
184.0,21.386
186.0,21.267
188.0,21.147
190.0,21.027
192.0,20.905
194.0,20.783
196.0,20.659
198.0,20.535
200.0,20.410
202.0,20.284
204.0,20.157
206.0,20.029
208.0,19.901
210.0,19.771
212.0,19.641
214.0,19.509
216.0,19.377
218.0,19.244
220.0,19.110
222.0,18.975
224.0,18.839
226.0,18.703
228.0,18.565
230.0,18.426
232.0,18.287
234.0,18.147
236.0,18.005
238.0,17.863
240.0,17.720
242.0,17.576
244.0,17.431
246.0,17.285
248.0,17.138
250.0,16.990
252.0,16.841
254.0,16.691
256.0,16.541
258.0,16.389
260.0,16.236
262.0,16.082
264.0,15.927
266.0,15.771
268.0,15.614
270.0,15.456
272.0,15.297
274.0,15.137
276.0,14.975
278.0,14.813
280.0,14.649
282.0,14.485
284.0,14.319
286.0,14.152
288.0,13.984
290.0,13.815
292.0,13.645
294.0,13.474
296.0,13.301
298.0,13.127
300.0,12.952
302.0,12.776
304.0,12.599
306.0,12.420
308.0,12.240
310.0,12.059
312.0,11.877
314.0,11.693
316.0,11.509
318.0,11.322
320.0,11.135
322.0,10.947
324.0,10.757
326.0,10.566
328.0,10.374
330.0,10.180
332.0,9.986
334.0,9.790
336.0,9.593
338.0,9.395
340.0,9.196
342.0,8.996
344.0,8.795
346.0,8.592
348.0,8.389
350.0,8.184
352.0,7.979
354.0,7.773
356.0,7.565
358.0,7.357
360.0,7.148
362.0,6.938
364.0,6.728
366.0,6.516
368.0,6.304
370.0,6.091
372.0,5.877
374.0,5.663
376.0,5.447
378.0,5.231
380.0,5.015
382.0,4.797
384.0,4.579
386.0,4.361
388.0,4.141
390.0,3.921
392.0,3.701
394.0,3.479
396.0,3.258
398.0,3.035
400.0,2.812
402.0,2.588
404.0,2.363
406.0,2.138
408.0,1.912
410.0,1.686
412.0,1.459
414.0,1.231
416.0,1.003
418.0,0.774
420.0,0.545
422.0,0.316
424.0,0.087
426.0,-0.143
428.0,-0.372
430.0,-0.599
432.0,-0.823
434.0,-1.038
436.0,-1.212
438.0,-1.347
440.0,-1.448
442.0,-1.520
444.0,-1.557
446.0,-1.565
448.0,-1.565
450.0,-1.565
452.0,-1.565
454.0,-1.565
456.0,-1.565
458.0,-1.565
460.0,-1.565
462.0,-1.565
464.0,-1.565
466.0,-1.565
468.0,-1.565
470.0,-1.565
472.0,-1.565
474.0,-1.565
476.0,-1.565
478.0,-1.565
480.0,-1.565
482.0,-1.565
484.0,-1.565
486.0,-1.565
488.0,-1.565
490.0,-1.565
492.0,-1.565
494.0,-1.565
496.0,-1.565
498.0,-1.565
500.0,-1.565