File: PMMA/Calibration_Results/NIST_FSRI/Sensitivity/NIST_FSRI_Gasification_q50_R3_Mass_full.csv
Time,Mass
[s],[g]
0.0,26.689
2.0,26.689
4.0,26.689
6.0,26.689
8.0,26.689
10.0,26.689
12.0,26.689
14.0,26.689
16.0,26.689
18.0,26.689
20.0,26.689
22.0,26.689
24.0,26.689
26.0,26.689
28.0,26.689
30.0,26.689
32.0,26.688
34.0,26.688
36.0,26.687
38.0,26.686
40.0,26.684
42.0,26.680
44.0,26.676
46.0,26.670
48.0,26.662
50.0,26.651
52.0,26.637
54.0,26.621
56.0,26.600
58.0,26.577
60.0,26.549
62.0,26.518
64.0,26.484
66.0,26.446
68.0,26.405
70.0,26.360
72.0,26.313
74.0,26.262
76.0,26.209
78.0,26.153
80.0,26.095
82.0,26.035
84.0,25.972
86.0,25.907
88.0,25.840
90.0,25.771
92.0,25.701
94.0,25.628
96.0,25.554
98.0,25.478
100.0,25.401
102.0,25.323
104.0,25.243
106.0,25.162
108.0,25.079
110.0,24.995
112.0,24.910
114.0,24.824
116.0,24.737
118.0,24.649
120.0,24.559
122.0,24.469
124.0,24.377
126.0,24.284
128.0,24.191
130.0,24.096
132.0,24.000
134.0,23.904
136.0,23.806
138.0,23.708
140.0,23.608
142.0,23.508
144.0,23.407
146.0,23.304
148.0,23.201
150.0,23.097
152.0,22.992
154.0,22.887
156.0,22.780
158.0,22.673
160.0,22.565
162.0,22.456
164.0,22.346
166.0,22.236
168.0,22.124
170.0,22.012
172.0,21.899
174.0,21.786
176.0,21.671
178.0,21.556
180.0,21.440
182.0,21.323
184.0,21.206
186.0,21.087
188.0,20.968
190.0,20.848
192.0,20.727
194.0,20.606
196.0,20.483
198.0,20.360
200.0,20.236
202.0,20.111
204.0,19.986
206.0,19.859
208.0,19.732
210.0,19.604
212.0,19.475
214.0,19.345
216.0,19.215
218.0,19.084
220.0,18.952
222.0,18.819
224.0,18.685
226.0,18.550
228.0,18.415
230.0,18.279
232.0,18.142
234.0,18.004
236.0,17.865
238.0,17.726
240.0,17.585
242.0,17.444
244.0,17.302
246.0,17.159
248.0,17.015
250.0,16.870
252.0,16.724
254.0,16.577
256.0,16.430
258.0,16.281
260.0,16.132
262.0,15.981
264.0,15.830
266.0,15.678
268.0,15.524
270.0,15.370
272.0,15.215
274.0,15.059
276.0,14.902
278.0,14.743
280.0,14.584
282.0,14.424
284.0,14.262
286.0,14.100
288.0,13.937
290.0,13.772
292.0,13.607
294.0,13.440
296.0,13.272
298.0,13.103
300.0,12.933
302.0,12.762
304.0,12.590
306.0,12.416
308.0,12.241
310.0,12.065
312.0,11.888
314.0,11.710
316.0,11.530
318.0,11.350
320.0,11.168
322.0,10.984
324.0,10.800
326.0,10.614
328.0,10.427
330.0,10.239
332.0,10.050
334.0,9.859
336.0,9.667
338.0,9.474
340.0,9.280
342.0,9.084
344.0,8.888
346.0,8.690
348.0,8.491
350.0,8.291
352.0,8.090
354.0,7.888
356.0,7.685
358.0,7.480
360.0,7.275
362.0,7.069
364.0,6.862
366.0,6.654
368.0,6.445
370.0,6.235
372.0,6.025
374.0,5.813
376.0,5.601
378.0,5.388
380.0,5.174
382.0,4.960
384.0,4.744
386.0,4.528
388.0,4.312
390.0,4.094
392.0,3.876
394.0,3.657
396.0,3.438
398.0,3.218
400.0,2.997
402.0,2.775
404.0,2.553
406.0,2.330
408.0,2.106
410.0,1.882
412.0,1.657
414.0,1.432
416.0,1.206
418.0,0.979
420.0,0.752
422.0,0.524
424.0,0.296
426.0,0.068
428.0,-0.161
430.0,-0.388
432.0,-0.615
434.0,-0.838
436.0,-1.050
438.0,-1.221
440.0,-1.353
442.0,-1.452
444.0,-1.521
446.0,-1.558
448.0,-1.565
450.0,-1.565
452.0,-1.565
454.0,-1.565
456.0,-1.565
458.0,-1.565
460.0,-1.565
462.0,-1.565
464.0,-1.565
466.0,-1.565
468.0,-1.565
470.0,-1.565
472.0,-1.565
474.0,-1.565
476.0,-1.565
478.0,-1.565
480.0,-1.565
482.0,-1.565
484.0,-1.565
486.0,-1.565
488.0,-1.565
490.0,-1.565
492.0,-1.565
494.0,-1.565
496.0,-1.565
498.0,-1.565
500.0,-1.565