File: PMMA/Calibration_Results/NIST_FSRI/Sensitivity/NIST_FSRI_Gasification_q50_R3_Mass_fluxR.csv
Time,Mass
[s],[g]
0,26.689
2,26.689
4,26.689
6,26.689
8,26.689
10,26.689
12,26.689
14,26.689
16,26.689
18,26.689
20,26.689
22,26.689
24,26.689
26,26.689
28,26.688
30,26.687
32,26.686
34,26.684
36,26.68
38,26.676
40,26.669
42,26.659
44,26.647
46,26.631
48,26.612
50,26.589
52,26.562
54,26.531
56,26.496
58,26.458
60,26.416
62,26.37
64,26.322
66,26.27
68,26.215
70,26.158
72,26.099
74,26.037
76,25.972
78,25.906
80,25.838
82,25.768
84,25.696
86,25.622
88,25.547
90,25.47
92,25.392
94,25.312
96,25.232
98,25.149
100,25.066
102,24.981
104,24.895
106,24.808
108,24.72
110,24.631
112,24.541
114,24.449
116,24.357
118,24.264
120,24.17
122,24.075
124,23.979
126,23.882
128,23.784
130,23.685
132,23.586
134,23.486
136,23.384
138,23.282
140,23.18
142,23.076
144,22.971
146,22.866
148,22.76
150,22.653
152,22.546
154,22.437
156,22.328
158,22.218
160,22.107
162,21.996
164,21.884
166,21.77
168,21.657
170,21.542
172,21.427
174,21.311
176,21.194
178,21.076
180,20.957
182,20.838
184,20.718
186,20.597
188,20.476
190,20.353
192,20.23
194,20.106
196,19.982
198,19.856
200,19.73
202,19.603
204,19.475
206,19.346
208,19.217
210,19.087
212,18.956
214,18.824
216,18.691
218,18.557
220,18.423
222,18.288
224,18.152
226,18.015
228,17.877
230,17.738
232,17.599
234,17.459
236,17.317
238,17.175
240,17.032
242,16.888
244,16.744
246,16.598
248,16.451
250,16.304
252,16.155
254,16.006
256,15.855
258,15.704
260,15.552
262,15.399
264,15.244
266,15.089
268,14.933
270,14.776
272,14.617
274,14.458
276,14.298
278,14.136
280,13.974
282,13.81
284,13.645
286,13.48
288,13.313
290,13.145
292,12.976
294,12.805
296,12.634
298,12.461
300,12.287
302,12.112
304,11.936
306,11.758
308,11.579
310,11.4
312,11.218
314,11.036
316,10.852
318,10.667
320,10.481
322,10.294
324,10.105
326,9.915
328,9.724
330,9.531
332,9.338
334,9.143
336,8.947
338,8.75
340,8.551
342,8.352
344,8.152
346,7.95
348,7.747
350,7.544
352,7.339
354,7.133
356,6.926
358,6.719
360,6.51
362,6.301
364,6.091
366,5.88
368,5.668
370,5.456
372,5.242
374,5.028
376,4.813
378,4.598
380,4.381
382,4.164
384,3.947
386,3.728
388,3.509
390,3.289
392,3.069
394,2.847
396,2.626
398,2.403
400,2.18
402,1.956
404,1.731
406,1.506
408,1.28
410,1.054
412,0.827
414,0.6
416,0.372
418,0.144
420,-0.084
422,-0.312
424,-0.539
426,-0.763
428,-0.981
430,-1.166
432,-1.311
434,-1.423
436,-1.503
438,-1.547
440,-1.565
442,-1.565
444,-1.565
446,-1.565
448,-1.565
450,-1.565
452,-1.565
454,-1.565
456,-1.565
458,-1.565
460,-1.565
462,-1.565
464,-1.565
466,-1.565
468,-1.565
470,-1.565
472,-1.565
474,-1.565
476,-1.565
478,-1.565
480,-1.565
482,-1.565
484,-1.565
486,-1.565
488,-1.565
490,-1.565
492,-1.565
494,-1.565
496,-1.565
498,-1.565
500,-1.565