File: PMMA/Calibration_Results/NIST_FSRI/Sensitivity/NIST_FSRI_Gasification_q50_T1_Temp_full.csv
Time,T_back
[s],[K]
0,292.1
2,292.1
4,292.1
6,292.1
8,292.1
10,292.1
12,292.1
14,292.1
16,292.1
18,292.1
20,292.1
22,292.2
24,292.3
26,292.4
28,292.6
30,292.9
32,293.2
34,293.6
36,294.2
38,294.8
40,295.5
42,296.3
44,297.2
46,298.3
48,299.4
50,300.6
52,301.9
54,303.3
56,304.8
58,306.4
60,308.1
62,309.9
64,311.7
66,313.6
68,315.6
70,317.6
72,319.7
74,321.9
76,324.1
78,326.4
80,328.7
82,331.0
84,333.4
86,335.8
88,338.2
90,340.7
92,343.2
94,345.7
96,348.2
98,350.7
100,353.3
102,355.9
104,358.4
106,361.0
108,363.6
110,366.2
112,368.8
114,371.4
116,374.0
118,376.6
120,379.2
122,381.8
124,384.4
126,386.9
128,389.5
130,392.1
132,394.7
134,397.2
136,399.8
138,402.3
140,404.9
142,407.4
144,409.9
146,412.5
148,415.0
150,417.5
152,420.0
154,422.5
156,425.0
158,427.4
160,429.9
162,432.4
164,434.8
166,437.3
168,439.7
170,442.2
172,444.6
174,447.0
176,449.4
178,451.8
180,454.2
182,456.6
184,459.0
186,461.4
188,463.8
190,466.1
192,468.5
194,470.8
196,473.2
198,475.5
200,477.8
202,480.2
204,482.5
206,484.8
208,487.1
210,489.4
212,491.7
214,494.0
216,496.3
218,498.6
220,500.8
222,503.1
224,505.4
226,507.6
228,509.9
230,512.1
232,514.4
234,516.6
236,518.8
238,521.0
240,523.2
242,525.4
244,527.6
246,529.8
248,532.0
250,534.2
252,536.3
254,538.5
256,540.7
258,542.8
260,544.9
262,547.0
264,549.1
266,551.2
268,553.3
270,555.4
272,557.4
274,559.4
276,561.5
278,563.5
280,565.5
282,567.4
284,569.4
286,571.3
288,573.2
290,575.1
292,577.0
294,578.8
296,580.7
298,582.5
300,584.2
302,586.0
304,587.7
306,589.4
308,591.1
310,592.8
312,594.4
314,596.0
316,597.6
318,599.2
320,600.8
322,602.3
324,603.8
326,605.4
328,606.8
330,608.3
332,609.8
334,611.3
336,612.8
338,614.3
340,615.7
342,617.2
344,618.7
346,620.2
348,621.8
350,623.3
352,624.9
354,626.5
356,628.1
358,629.8
360,631.5
362,633.3
364,635.1
366,637.0
368,638.9
370,640.9
372,643.0
374,645.2
376,647.5
378,649.9
380,652.4
382,655.0
384,657.9
386,660.9
388,664.2
390,667.7
392,671.6
394,675.9
396,680.8
398,686.4
400,693.2
402,701.9
404,714.1
406,736.7
408,770.5
410,812.0
412,829.8
414,840.7
416,848.4
418,854.2
420,858.8
422,862.5
424,865.5
426,868.2
428,870.4
430,872.4
432,874.2
434,875.8
436,877.3
438,878.6
440,879.8
442,880.9
444,882.0
446,882.9
448,883.8
450,884.7
452,885.5
454,886.2
456,886.9
458,887.6
460,888.2
462,888.8
464,889.4
466,889.9
468,890.5
470,891.0
472,891.5
474,891.9
476,892.4
478,892.8
480,893.2
482,893.6
484,894.0
486,894.4
488,894.7
490,895.1
492,895.4
494,895.7
496,896.1
498,896.4
500,896.7