File: PMMA/Validation_Results/NIST-StMU-FSRI/NIST-StMU-FSRI_Gasification_q50_Temp_R4.csv
Time,T_back
[s],[K]
0.0,293.6
2.0,293.6
4.0,293.6
6.0,293.6
8.0,293.6
10.0,293.6
12.0,293.6
14.0,293.6
16.0,293.6
18.0,293.6
20.0,293.7
22.0,293.8
24.0,293.9
26.0,294.1
28.0,294.3
30.0,294.5
32.0,295.0
34.0,295.4
36.0,296.0
38.0,296.5
40.0,297.5
42.0,298.2
44.0,299.2
46.0,300.0
48.0,301.3
50.0,302.8
52.0,304.2
54.0,305.1
56.0,306.5
58.0,308.7
60.0,309.7
62.0,311.8
64.0,313.8
66.0,315.7
68.0,317.9
70.0,320.3
72.0,321.9
74.0,323.8
76.0,326.4
78.0,328.3
80.0,331.1
82.0,333.5
84.0,335.7
86.0,338.2
88.0,340.2
90.0,343.8
92.0,346.0
94.0,347.8
96.0,351.0
98.0,354.1
100.0,355.7
102.0,357.9
104.0,361.5
106.0,364.6
108.0,366.4
110.0,369.6
112.0,372.0
114.0,374.6
116.0,378.0
118.0,379.5
120.0,382.3
122.0,384.7
124.0,388.3
126.0,390.4
128.0,392.6
130.0,397.3
132.0,398.7
134.0,401.4
136.0,404.7
138.0,406.7
140.0,409.9
142.0,412.7
144.0,414.9
146.0,417.7
148.0,421.0
150.0,422.3
152.0,425.6
154.0,427.5
156.0,428.8
158.0,432.8
160.0,436.1
162.0,437.2
164.0,439.0
166.0,440.7
168.0,445.5
170.0,447.9
172.0,449.6
174.0,450.9
176.0,453.6
178.0,458.7
180.0,461.4
182.0,463.7
184.0,465.9
186.0,468.2
188.0,470.5
190.0,472.7
192.0,474.9
194.0,477.1
196.0,479.4
198.0,481.6
200.0,483.8
202.0,486.0
204.0,488.1
206.0,487.4
208.0,488.5
210.0,491.0
212.0,493.6
214.0,496.2
216.0,497.2
218.0,500.6
220.0,502.1
222.0,504.7
224.0,508.1
226.0,510.4
228.0,512.3
230.0,513.9
232.0,517.4
234.0,519.0
236.0,522.2
238.0,523.4
240.0,526.7
242.0,532.0
244.0,534.5
246.0,537.1
248.0,539.6
250.0,542.2
252.0,544.8
254.0,547.3
256.0,549.9
258.0,552.5
260.0,555.0
262.0,557.6
264.0,560.1
266.0,562.6
268.0,565.0
270.0,567.4
272.0,569.8
274.0,572.1
276.0,574.4
278.0,576.6
280.0,578.8
282.0,580.9
284.0,583.0
286.0,585.1
288.0,587.0
290.0,589.0
292.0,590.9
294.0,592.7
296.0,594.5
298.0,596.3
300.0,598.0
302.0,599.7
304.0,601.4
306.0,603.1
308.0,604.7
310.0,606.3
312.0,607.9
314.0,609.5
316.0,611.1
318.0,612.6
320.0,614.2
322.0,615.8
324.0,617.4
326.0,619.0
328.0,620.6
330.0,622.3
332.0,623.9
334.0,625.6
336.0,627.3
338.0,629.1
340.0,630.9
342.0,632.7
344.0,634.6
346.0,636.6
348.0,638.6
350.0,640.6
352.0,642.8
354.0,645.0
356.0,647.3
358.0,649.6
360.0,652.1
362.0,654.8
364.0,657.6
366.0,660.5
368.0,663.6
370.0,666.8
372.0,670.2
374.0,673.7
376.0,677.5
378.0,681.4
380.0,685.4
382.0,689.6
384.0,693.9
386.0,698.7
388.0,704.2
390.0,710.3
392.0,718.4
394.0,729.8
396.0,750.9
398.0,793.8
400.0,827.8
402.0,842.4
404.0,850.8
406.0,856.5
408.0,860.7
410.0,864.0
412.0,866.6
414.0,868.9
416.0,870.8
418.0,872.4
420.0,873.9
422.0,875.2
424.0,876.4
426.0,877.4
428.0,878.4
430.0,879.3
432.0,880.1
434.0,880.9
436.0,881.6
438.0,882.3
440.0,882.9
442.0,883.5
444.0,884.1
446.0,884.6
448.0,885.1
450.0,885.6
452.0,886.1
454.0,886.5
456.0,886.9
458.0,887.3
460.0,887.7
462.0,888.1
464.0,888.4
466.0,888.8
468.0,889.1
470.0,889.4
472.0,889.7
474.0,890.0
476.0,890.3
478.0,890.6
480.0,890.9
482.0,891.1
484.0,891.4
486.0,891.6
488.0,891.9
490.0,892.1
492.0,892.3
494.0,892.5
496.0,892.7
498.0,892.9
500.0,893.1