File: PMMA/Validation_Results/NIST-StMU-FSRI/NIST-StMU-FSRI_Gasification_q50_Mass_R4.csv
Time,Mass
[s],[g]
0.0,25.6
2.0,25.6
4.0,25.6
6.0,25.6
8.0,25.6
10.0,25.6
12.0,25.6
14.0,25.6
16.0,25.6
18.0,25.6
20.0,25.6
22.0,25.6
24.0,25.6
26.0,25.6
28.0,25.6
30.0,25.6
32.0,25.6
34.0,25.5
36.0,25.5
38.0,25.5
40.0,25.5
42.0,25.5
44.0,25.4
46.0,25.4
48.0,25.4
50.0,25.4
52.0,25.3
54.0,25.3
56.0,25.2
58.0,25.2
60.0,25.1
62.0,25.1
64.0,25.0
66.0,24.9
68.0,24.9
70.0,24.8
72.0,24.7
74.0,24.6
76.0,24.6
78.0,24.5
80.0,24.4
82.0,24.3
84.0,24.2
86.0,24.1
88.0,24.0
90.0,23.9
92.0,23.8
94.0,23.7
96.0,23.6
98.0,23.5
100.0,23.4
102.0,23.3
104.0,23.2
106.0,23.1
108.0,23.0
110.0,22.9
112.0,22.8
114.0,22.6
116.0,22.5
118.0,22.4
120.0,22.3
122.0,22.2
124.0,22.0
126.0,21.9
128.0,21.8
130.0,21.7
132.0,21.5
134.0,21.4
136.0,21.3
138.0,21.2
140.0,21.0
142.0,20.9
144.0,20.8
146.0,20.6
148.0,20.5
150.0,20.4
152.0,20.2
154.0,20.1
156.0,19.9
158.0,19.8
160.0,19.7
162.0,19.5
164.0,19.4
166.0,19.2
168.0,19.1
170.0,18.9
172.0,18.8
174.0,18.6
176.0,18.5
178.0,18.3
180.0,18.2
182.0,18.0
184.0,17.9
186.0,17.7
188.0,17.5
190.0,17.4
192.0,17.2
194.0,17.1
196.0,16.9
198.0,16.7
200.0,16.6
202.0,16.4
204.0,16.2
206.0,16.1
208.0,15.9
210.0,15.7
212.0,15.6
214.0,15.4
216.0,15.2
218.0,15.1
220.0,14.9
222.0,14.7
224.0,14.5
226.0,14.4
228.0,14.2
230.0,14.0
232.0,13.8
234.0,13.7
236.0,13.5
238.0,13.3
240.0,13.1
242.0,12.9
244.0,12.8
246.0,12.6
248.0,12.4
250.0,12.2
252.0,12.0
254.0,11.8
256.0,11.6
258.0,11.4
260.0,11.2
262.0,11.0
264.0,10.8
266.0,10.6
268.0,10.4
270.0,10.2
272.0,10.0
274.0,9.8
276.0,9.6
278.0,9.3
280.0,9.1
282.0,8.9
284.0,8.7
286.0,8.5
288.0,8.3
290.0,8.0
292.0,7.8
294.0,7.6
296.0,7.4
298.0,7.1
300.0,6.9
302.0,6.7
304.0,6.4
306.0,6.2
308.0,6.0
310.0,5.7
312.0,5.5
314.0,5.3
316.0,5.0
318.0,4.8
320.0,4.6
322.0,4.3
324.0,4.1
326.0,3.9
328.0,3.6
330.0,3.4
332.0,3.1
334.0,2.9
336.0,2.7
338.0,2.4
340.0,2.2
342.0,1.9
344.0,1.7
346.0,1.4
348.0,1.2
350.0,1.0
352.0,0.7
354.0,0.5
356.0,0.2
358.0,0.0
360.0,-0.2
362.0,-0.5
364.0,-0.7
366.0,-0.9
368.0,-1.2
370.0,-1.4
372.0,-1.6
374.0,-1.8
376.0,-2.0
378.0,-2.1
380.0,-2.2
382.0,-2.3
384.0,-2.3
386.0,-2.3
388.0,-2.3
390.0,-2.3
392.0,-2.3
394.0,-2.3
396.0,-2.3
398.0,-2.3
400.0,-2.3
402.0,-2.3
404.0,-2.3
406.0,-2.3
408.0,-2.3
410.0,-2.3
412.0,-2.3
414.0,-2.3
416.0,-2.3
418.0,-2.3
420.0,-2.3
422.0,-2.3
424.0,-2.3
426.0,-2.3
428.0,-2.3
430.0,-2.3
432.0,-2.3
434.0,-2.3
436.0,-2.3
438.0,-2.3
440.0,-2.3
442.0,-2.3
444.0,-2.3
446.0,-2.3
448.0,-2.3
450.0,-2.3
452.0,-2.3
454.0,-2.3
456.0,-2.3
458.0,-2.3
460.0,-2.3
462.0,-2.3
464.0,-2.3
466.0,-2.3
468.0,-2.3
470.0,-2.3
472.0,-2.3
474.0,-2.3
476.0,-2.3
478.0,-2.3
480.0,-2.3
482.0,-2.3
484.0,-2.3
486.0,-2.3
488.0,-2.3
490.0,-2.3
492.0,-2.3
494.0,-2.3
496.0,-2.3
498.0,-2.3
500.0,-2.3