File: PMMA/Validation_Results/NIST-StMU-FSRI/NIST-StMU-FSRI_Gasification_q50_Mass_R5.csv
Time,Mass
[s],[g]
0.0,28.1
2.0,28.1
4.0,28.1
6.0,28.1
8.0,28.1
10.0,28.1
12.0,28.1
14.0,28.1
16.0,28.1
18.0,28.1
20.0,28.1
22.0,28.1
24.0,28.1
26.0,28.1
28.0,28.1
30.0,28.0
32.0,28.0
34.0,28.0
36.0,28.0
38.0,28.0
40.0,28.0
42.0,27.9
44.0,27.9
46.0,27.9
48.0,27.9
50.0,27.8
52.0,27.8
54.0,27.7
56.0,27.7
58.0,27.7
60.0,27.6
62.0,27.5
64.0,27.5
66.0,27.4
68.0,27.3
70.0,27.3
72.0,27.2
74.0,27.1
76.0,27.0
78.0,26.9
80.0,26.9
82.0,26.8
84.0,26.7
86.0,26.6
88.0,26.5
90.0,26.4
92.0,26.3
94.0,26.2
96.0,26.1
98.0,26.0
100.0,25.9
102.0,25.8
104.0,25.7
106.0,25.6
108.0,25.5
110.0,25.4
112.0,25.2
114.0,25.1
116.0,25.0
118.0,24.9
120.0,24.8
122.0,24.7
124.0,24.5
126.0,24.4
128.0,24.3
130.0,24.2
132.0,24.1
134.0,23.9
136.0,23.8
138.0,23.7
140.0,23.6
142.0,23.4
144.0,23.3
146.0,23.2
148.0,23.0
150.0,22.9
152.0,22.8
154.0,22.6
156.0,22.5
158.0,22.4
160.0,22.2
162.0,22.1
164.0,22.0
166.0,21.8
168.0,21.7
170.0,21.5
172.0,21.4
174.0,21.2
176.0,21.1
178.0,21.0
180.0,20.8
182.0,20.7
184.0,20.5
186.0,20.4
188.0,20.2
190.0,20.1
192.0,19.9
194.0,19.8
196.0,19.6
198.0,19.4
200.0,19.3
202.0,19.1
204.0,19.0
206.0,18.8
208.0,18.7
210.0,18.5
212.0,18.3
214.0,18.2
216.0,18.0
218.0,17.8
220.0,17.7
222.0,17.5
224.0,17.3
226.0,17.2
228.0,17.0
230.0,16.8
232.0,16.7
234.0,16.5
236.0,16.3
238.0,16.2
240.0,16.0
242.0,15.8
244.0,15.6
246.0,15.5
248.0,15.3
250.0,15.1
252.0,14.9
254.0,14.8
256.0,14.6
258.0,14.4
260.0,14.2
262.0,14.0
264.0,13.9
266.0,13.7
268.0,13.5
270.0,13.3
272.0,13.1
274.0,12.9
276.0,12.7
278.0,12.5
280.0,12.3
282.0,12.1
284.0,11.9
286.0,11.7
288.0,11.5
290.0,11.3
292.0,11.1
294.0,10.9
296.0,10.7
298.0,10.5
300.0,10.3
302.0,10.1
304.0,9.9
306.0,9.6
308.0,9.4
310.0,9.2
312.0,9.0
314.0,8.8
316.0,8.5
318.0,8.3
320.0,8.1
322.0,7.9
324.0,7.6
326.0,7.4
328.0,7.2
330.0,6.9
332.0,6.7
334.0,6.5
336.0,6.2
338.0,6.0
340.0,5.8
342.0,5.5
344.0,5.3
346.0,5.1
348.0,4.8
350.0,4.6
352.0,4.4
354.0,4.1
356.0,3.9
358.0,3.6
360.0,3.4
362.0,3.2
364.0,2.9
366.0,2.7
368.0,2.4
370.0,2.2
372.0,2.0
374.0,1.7
376.0,1.5
378.0,1.2
380.0,1.0
382.0,0.7
384.0,0.5
386.0,0.3
388.0,0.0
390.0,-0.2
392.0,-0.4
394.0,-0.7
396.0,-0.9
398.0,-1.1
400.0,-1.3
402.0,-1.5
404.0,-1.7
406.0,-1.8
408.0,-1.9
410.0,-1.9
412.0,-1.9
414.0,-1.9
416.0,-1.9
418.0,-1.9
420.0,-1.9
422.0,-1.9
424.0,-1.9
426.0,-1.9
428.0,-1.9
430.0,-1.9
432.0,-1.9
434.0,-1.9
436.0,-1.9
438.0,-1.9
440.0,-1.9
442.0,-1.9
444.0,-1.9
446.0,-1.9
448.0,-1.9
450.0,-1.9
452.0,-1.9
454.0,-1.9
456.0,-1.9
458.0,-1.9
460.0,-1.9
462.0,-1.9
464.0,-1.9
466.0,-1.9
468.0,-1.9
470.0,-1.9
472.0,-1.9
474.0,-1.9
476.0,-1.9
478.0,-1.9
480.0,-1.9
482.0,-1.9
484.0,-1.9
486.0,-1.9
488.0,-1.9
490.0,-1.9
492.0,-1.9
494.0,-1.9
496.0,-1.9
498.0,-1.9
500.0,-1.9