File: PMMA/Validation_Results/NIST-StMU-FSRI/NIST-StMU-FSRI_Gasification_q25_Temp_R2.csv
Time,T_back
[s],[K]
0.0,294.5
3.2,294.5
6.4,294.5
9.6,294.5
12.8,294.5
16.0,294.5
19.2,294.5
22.4,294.6
25.6,294.7
28.8,294.8
32.0,295.0
35.2,295.3
38.4,295.8
41.6,296.3
44.8,296.9
48.0,297.7
51.2,298.6
54.4,299.7
57.6,300.7
60.8,302.0
64.0,303.3
67.2,304.9
70.4,306.4
73.6,308.0
76.8,309.8
80.0,311.5
83.2,313.2
86.4,315.4
89.6,317.1
92.8,319.5
96.0,321.5
99.2,323.9
102.4,325.7
105.6,328.2
108.8,330.8
112.0,332.9
115.2,335.1
118.4,337.3
121.6,340.1
124.8,342.2
128.0,344.9
131.2,346.9
134.4,349.9
137.6,352.1
140.8,354.5
144.0,357.2
147.2,359.2
150.4,361.9
153.6,364.4
156.8,366.8
160.0,369.1
163.2,371.6
166.4,374.5
169.6,377.0
172.8,378.1
176.0,381.9
179.2,383.4
182.4,386.2
185.6,388.5
188.8,390.5
192.0,393.7
195.2,396.3
198.4,398.8
201.6,400.4
204.8,402.0
208.0,405.3
211.2,406.9
214.4,409.0
217.6,411.5
220.8,413.9
224.0,416.2
227.2,418.2
230.4,421.1
233.6,423.1
236.8,424.7
240.0,427.0
243.2,429.3
246.4,430.9
249.6,432.4
252.8,434.7
256.0,438.8
259.2,440.7
262.4,442.6
265.6,444.5
268.8,446.4
272.0,448.2
275.2,450.0
278.4,451.7
281.6,453.5
284.8,455.2
288.0,456.9
291.2,458.6
294.4,460.3
297.6,461.9
300.8,463.6
304.0,465.2
307.2,466.8
310.4,468.3
313.6,469.9
316.8,471.4
320.0,473.0
323.2,474.5
326.4,476.0
329.6,477.5
332.8,479.0
336.0,480.5
339.2,482.0
342.4,483.5
345.6,485.0
348.8,486.4
352.0,487.9
355.2,489.4
358.4,490.9
361.6,492.3
364.8,493.8
368.0,495.3
371.2,496.8
374.4,498.2
377.6,499.7
380.8,501.2
384.0,502.7
387.2,504.2
390.4,505.7
393.6,507.1
396.8,508.6
400.0,510.1
403.2,511.6
406.4,513.1
409.6,514.6
412.8,516.0
416.0,517.5
419.2,519.0
422.4,520.4
425.6,521.9
428.8,523.3
432.0,524.7
435.2,526.1
438.4,527.5
441.6,528.9
444.8,530.2
448.0,531.6
451.2,532.9
454.4,534.2
457.6,535.5
460.8,536.7
464.0,538.0
467.2,539.2
470.4,540.4
473.6,541.5
476.8,542.7
480.0,543.8
483.2,544.9
486.4,546.0
489.6,547.0
492.8,548.0
496.0,549.1
499.2,550.0
502.4,551.0
505.6,552.0
508.8,552.9
512.0,553.8
515.2,554.7
518.4,555.5
521.6,556.4
524.8,557.2
528.0,558.0
531.2,558.8
534.4,559.6
537.6,560.4
540.8,561.1
544.0,561.9
547.2,562.6
550.4,563.3
553.6,564.0
556.8,564.6
560.0,565.3
563.2,565.9
566.4,566.6
569.6,567.2
572.8,567.8
576.0,568.4
579.2,569.0
582.4,569.5
585.6,570.1
588.8,570.6
592.0,571.2
595.2,571.7
598.4,572.2
601.6,572.7
604.8,573.2
608.0,573.7
611.2,574.2
614.4,574.7
617.6,575.2
620.8,575.6
624.0,576.1
627.2,576.5
630.4,577.0
633.6,577.4
636.8,577.8
640.0,578.2
643.2,578.7
646.4,579.1
649.6,579.5
652.8,579.9
656.0,580.3
659.2,580.7
662.4,581.1
665.6,581.5
668.8,581.9
672.0,582.2
675.2,582.6
678.4,583.0
681.6,583.4
684.8,583.8
688.0,584.1
691.2,584.5
694.4,584.9
697.6,585.2
700.8,585.6
704.0,586.0
707.2,586.3
710.4,586.7
713.6,587.0
716.8,587.4
720.0,587.8
723.2,588.1
726.4,588.5
729.6,588.8
732.8,589.2
736.0,589.5
739.2,589.9
742.4,590.3
745.6,590.6
748.8,591.0
752.0,591.3
755.2,591.7
758.4,592.1
761.6,592.4
764.8,592.8
768.0,593.1
771.2,593.5
774.4,593.9
777.6,594.2
780.8,594.6
784.0,594.9
787.2,595.3
790.4,595.7
793.6,596.1
796.8,596.4
800.0,596.8