File: PMMA/Validation_Results/NIST-StMU-FSRI/NIST-StMU-FSRI_Gasification_q50_Temp_R3.csv
Time,T_back
[s],[K]
0.0,292.4
2.0,292.3
4.0,292.3
6.0,292.4
8.0,292.4
10.0,292.4
12.0,292.4
14.0,292.4
16.0,292.4
18.0,292.4
20.0,292.4
22.0,292.5
24.0,292.6
26.0,292.8
28.0,293.0
30.0,293.3
32.0,293.6
34.0,294.1
36.0,294.6
38.0,295.2
40.0,295.9
42.0,296.7
44.0,297.6
46.0,298.6
48.0,299.7
50.0,300.9
52.0,302.2
54.0,303.6
56.0,305.0
58.0,306.6
60.0,308.2
62.0,309.9
64.0,311.7
66.0,313.6
68.0,315.6
70.0,317.6
72.0,319.6
74.0,321.8
76.0,324.0
78.0,326.2
80.0,328.5
82.0,330.8
84.0,333.2
86.0,335.6
88.0,338.1
90.0,340.5
92.0,343.0
94.0,345.6
96.0,348.1
98.0,350.7
100.0,353.3
102.0,355.9
104.0,358.5
106.0,361.1
108.0,363.8
110.0,366.4
112.0,369.0
114.0,371.7
116.0,374.3
118.0,377.0
120.0,379.6
122.0,382.3
124.0,384.9
126.0,387.6
128.0,390.2
130.0,392.9
132.0,395.5
134.0,398.1
136.0,400.7
138.0,403.3
140.0,405.9
142.0,408.5
144.0,411.1
146.0,413.6
148.0,416.2
150.0,418.7
152.0,421.2
154.0,423.8
156.0,426.3
158.0,428.7
160.0,431.2
162.0,433.7
164.0,436.1
166.0,438.5
168.0,440.9
170.0,443.3
172.0,445.7
174.0,448.1
176.0,450.4
178.0,452.7
180.0,455.0
182.0,457.3
184.0,459.6
186.0,461.9
188.0,464.1
190.0,466.4
192.0,468.6
194.0,470.8
196.0,473.0
198.0,475.2
200.0,477.4
202.0,479.5
204.0,481.7
206.0,483.9
208.0,486.0
210.0,488.2
212.0,490.4
214.0,492.5
216.0,494.7
218.0,496.9
220.0,499.0
222.0,501.2
224.0,503.4
226.0,505.7
228.0,507.9
230.0,510.2
232.0,512.4
234.0,514.7
236.0,517.1
238.0,519.4
240.0,521.8
242.0,524.2
244.0,526.6
246.0,529.0
248.0,531.5
250.0,534.0
252.0,536.5
254.0,539.0
256.0,541.6
258.0,544.1
260.0,546.7
262.0,549.2
264.0,551.8
266.0,554.3
268.0,556.8
270.0,559.3
272.0,561.8
274.0,564.2
276.0,566.6
278.0,569.0
280.0,571.3
282.0,573.6
284.0,575.8
286.0,578.0
288.0,580.1
290.0,582.2
292.0,584.2
294.0,586.2
296.0,588.1
298.0,590.0
300.0,591.9
302.0,593.7
304.0,595.5
306.0,597.2
308.0,598.9
310.0,600.6
312.0,602.3
314.0,603.9
316.0,605.5
318.0,607.1
320.0,608.7
322.0,610.2
324.0,611.8
326.0,613.4
328.0,615.0
330.0,616.5
332.0,618.1
334.0,619.7
336.0,621.4
338.0,623.0
340.0,624.7
342.0,626.4
344.0,628.1
346.0,629.9
348.0,631.7
350.0,633.5
352.0,635.5
354.0,637.4
356.0,639.4
358.0,641.5
360.0,643.7
362.0,645.9
364.0,648.3
366.0,650.7
368.0,653.2
370.0,655.9
372.0,658.8
374.0,661.8
376.0,664.9
378.0,668.2
380.0,671.6
382.0,675.3
384.0,679.1
386.0,683.1
388.0,687.1
390.0,691.3
392.0,695.9
394.0,700.9
396.0,706.4
398.0,713.6
400.0,722.0
402.0,737.1
404.0,765.6
406.0,812.1
408.0,835.0
410.0,846.3
412.0,853.4
414.0,858.3
416.0,862.1
418.0,865.1
420.0,867.6
422.0,869.6
424.0,871.4
426.0,873.0
428.0,874.4
430.0,875.6
432.0,876.8
434.0,877.8
436.0,878.7
438.0,879.6
440.0,880.4
442.0,881.2
444.0,881.9
446.0,882.5
448.0,883.1
450.0,883.7
452.0,884.3
454.0,884.8
456.0,885.3
458.0,885.8
460.0,886.2
462.0,886.6
464.0,887.1
466.0,887.4
468.0,887.8
470.0,888.2
472.0,888.5
474.0,888.9
476.0,889.2
478.0,889.5
480.0,889.8
482.0,890.1
484.0,890.4
486.0,890.7
488.0,890.9
490.0,891.2
492.0,891.4
494.0,891.7
496.0,891.9
498.0,892.1
500.0,892.4