File: PMMA/Calibration_Results/NIST_FSRI/All_Props/Aalto[NIST_FSRI]_Gasification_q50_R3_Mass.csv
s,kg/m2,,C,C,C,C,m,kg/m2,kg/m2,kg/m2,kg/m2/s
Time,"SD","MF","TW1","TSB1","TAL1","TB1","DX1","SD1","SD_11","SD_12","BR1"
 0.0000000E+000, 6.96099, 0.999927, 20.9, 20.9, 20.9, 20.9, 0.041278, 31.8153, 0.294768, 7.07443, 0.0000000E+000
 6.01, 6.96098, 0.999925, 170.154, 20.9, 20.9, 20.9, 0.041278, 31.8153, 0.29476, 7.07443, 8.7835e-06
 12.01, 6.96017, 0.999809, 245.057, 20.9016, 20.9, 20.9, 0.0412774, 31.8146, 0.294044, 7.07443, 0.000373894
 18, 6.95339, 0.998835, 292.925, 20.9439, 20.9, 20.9, 0.0412718, 31.8082, 0.287717, 7.07435, 0.00189348
 24, 6.93853, 0.996701, 326.72, 21.2123, 20.9, 20.9, 0.0412591, 31.7936, 0.274208, 7.07322, 0.00274627
 30, 6.9191, 0.99391, 351.809, 21.9941, 20.9, 20.9, 0.0412424, 31.7744, 0.262061, 7.06625, 0.00394806
 36, 6.88703, 0.989303, 365.776, 23.6306, 20.9, 20.9, 0.0412151, 31.743, 0.2521, 7.0448, 0.00659002
 42, 6.83938, 0.982458, 372.434, 25.9909, 20.9, 20.9, 0.0411742, 31.696, 0.243303, 7.00654, 0.00898493
 48.01, 6.77939, 0.97384, 375.928, 29.9212, 20.9, 20.9, 0.0411223, 31.6363, 0.235297, 6.95489, 0.0107662
 54.01, 6.71035, 0.963922, 378.048, 34.2583, 20.9, 20.9, 0.0410626, 31.5676, 0.227873, 6.89359, 0.012079
 60.01, 6.63444, 0.953019, 379.503, 39.9511, 20.9, 20.9, 0.0409968, 31.4919, 0.220865, 6.82493, 0.0130989
 66.01, 6.5531, 0.941335, 380.585, 46.6358, 20.9, 20.9, 0.0409262, 31.4108, 0.214151, 6.7505, 0.013919
 72.01, 6.46733, 0.929014, 381.432, 52.9916, 20.9, 20.9, 0.0408518, 31.3252, 0.207661, 6.67138, 0.0145944
 78, 6.37782, 0.916156, 382.143, 60.4322, 20.9, 20.9, 0.0407742, 31.2359, 0.201345, 6.58848, 0.0151753
 84, 6.28509, 0.902835, 382.756, 67.466, 20.9, 20.9, 0.0406937, 31.1433, 0.195135, 6.50209, 0.0156845
 90, 6.18949, 0.889103, 383.288, 75.1738, 20.9, 20.9, 0.0406106, 31.0479, 0.189001, 6.41273, 0.0161346
 96, 6.09131, 0.875, 383.784, 84.702, 20.9, 20.9, 0.0405254, 30.9498, 0.182908, 6.32075, 0.0165537
 102, 5.99072, 0.86055, 384.234, 92.5121, 20.9, 20.9, 0.040438, 30.8493, 0.176824, 6.22634, 0.0169397
 108, 5.88788, 0.845778, 384.657, 101.285, 20.9001, 20.9, 0.0403486, 30.7465, 0.170718, 6.1297, 0.0173052
 114, 5.78287, 0.830693, 385.074, 109.561, 20.9002, 20.9, 0.0402574, 30.6416, 0.164561, 6.03094, 0.0176661
 120, 5.67575, 0.815305, 385.464, 116.771, 20.9003, 20.9, 0.0401643, 30.5346, 0.158325, 5.93013, 0.0180103
 126, 5.56657, 0.799622, 385.845, 125.75, 20.9005, 20.9001, 0.0400694, 30.4255, 0.151983, 5.82738, 0.0183526
 132, 5.45531, 0.78364, 386.233, 136.219, 20.9008, 20.9001, 0.0399728, 30.3143, 0.145505, 5.72269, 0.0187033
 138, 5.34198, 0.767361, 386.598, 142.217, 20.9013, 20.9002, 0.0398743, 30.2011, 0.138864, 5.61609, 0.0190424
 144, 5.22659, 0.750785, 386.962, 154.101, 20.902, 20.9003, 0.039774, 30.0858, 0.132031, 5.50762, 0.0193899
 150, 5.10909, 0.733906, 387.338, 162.349, 20.903, 20.9005, 0.0396719, 29.9684, 0.124977, 5.39726, 0.0197515
 156, 4.98943, 0.716717, 387.695, 170.499, 20.9043, 20.9007, 0.039568, 29.8488, 0.117673, 5.28499, 0.0201058
 162.01, 4.8676, 0.699217, 388.054, 178.551, 20.9061, 20.9011, 0.0394619, 29.7268, 0.110079, 5.17064, 0.0204709
 168.01, 4.74357, 0.681401, 388.421, 186.466, 20.9083, 20.9016, 0.0393542, 29.6029, 0.1022, 5.05459, 0.0208461
 174.01, 4.61727, 0.663258, 388.778, 191.93, 20.9111, 20.9022, 0.0392444, 29.4767, 0.0940118, 4.93656, 0.02122
 180.01, 4.48871, 0.644791, 389.135, 199.533, 20.9147, 20.9031, 0.0391327, 29.3482, 0.0855163, 4.81659, 0.0215968
 186.01, 4.35792, 0.626003, 389.492, 206.2, 20.919, 20.9042, 0.039019, 29.2175, 0.0767386, 4.69466, 0.0219709
 192.01, 4.22487, 0.606891, 389.857, 211.914, 20.9241, 20.9056, 0.0389034, 29.0846, 0.0677333, 4.57072, 0.0223432
 198.01, 4.08965, 0.587466, 390.214, 221.095, 20.9303, 20.9073, 0.0387859, 28.9494, 0.0585918, 4.44471, 0.0226979
 204.01, 3.95237, 0.567747, 390.571, 228.184, 20.9376, 20.9095, 0.0386666, 28.8122, 0.0494482, 4.31666, 0.0230319
 210.01, 3.81318, 0.547753, 390.93, 235.219, 20.9461, 20.9121, 0.0385456, 28.6731, 0.0404808, 4.18651, 0.0233396
 216.01, 3.67219, 0.5275, 391.292, 240.603, 20.9558, 20.9152, 0.0384231, 28.5322, 0.0319093, 4.05416, 0.0236243
 222.01, 3.52964, 0.507023, 391.649, 248.932, 20.967, 20.9189, 0.0382992, 28.3897, 0.0239844, 3.91959, 0.0238731
 228.01, 3.38566, 0.486341, 392.004, 254.877, 20.9797, 20.9233, 0.0381741, 28.2458, 0.0169688, 3.78269, 0.0240958
 234.01, 3.24037, 0.465469, 392.379, 263.089, 20.994, 20.9284, 0.0380478, 28.1005, 0.0111058, 3.64331, 0.0243213
 240.01, 3.09372, 0.444404, 392.741, 271.051, 21.0101, 20.9342, 0.0379203, 27.9539, 0.00657138, 3.50125, 0.0245482
 246.01, 2.94555, 0.423119, 393.111, 278.679, 21.0279, 20.941, 0.0377915, 27.8058, 0.00341445, 3.3563, 0.0248254
 252.01, 2.79548, 0.401563, 393.492, 287.142, 21.0476, 20.9487, 0.0376611, 27.6559, 0.0015043, 3.20823, 0.0251837
 258.01, 2.64296, 0.379654, 393.872, 294.47, 21.0694, 20.9574, 0.0375285, 27.5034, 0.000540717, 3.05678, 0.0256276
 264.01, 2.48755, 0.357329, 394.25, 299.644, 21.0932, 20.9673, 0.0373935, 27.3482, 0.000152717, 2.90188, 0.0261368
 270.01, 2.32903, 0.334558, 394.621, 310.31, 21.1191, 20.9783, 0.0372558, 27.1898, 3.27654e-05, 2.74361, 0.0266564
 276.01, 2.16746, 0.31135, 394.99, 316.12, 21.1473, 20.9906, 0.0371154, 27.0283, 5.18601e-06, 2.58218, 0.0271455
 282.01, 2.00318, 0.287751, 395.344, 318.625, 21.1778, 21.0042, 0.0369726, 26.8641, 5.88969e-07, 2.41801, 0.0275677
 288.01, 1.8366, 0.263822, 395.687, 322.535, 21.2107, 21.0192, 0.0368278, 26.6976, 4.65382e-08, 2.25151, 0.0279188
 294.01, 1.66809, 0.239617, 396.032, 327.488, 21.2461, 21.0357, 0.0366814, 26.5292, 2.46243e-09, 2.08308, 0.0282125
 300.01, 1.49799, 0.215181, 396.384, 332.001, 21.284, 21.0537, 0.0365335, 26.3591, 8.28868e-11, 1.91303, 0.0284599
 306.01, 1.3265, 0.190549, 396.745, 337.37, 21.3244, 21.0734, 0.0363844, 26.1877, 1.65448e-12, 1.7416, 0.0286709
 312.01, 1.15387, 0.16575, 397.126, 341.781, 21.3675, 21.0948, 0.0362344, 26.0151, 1.77885e-14, 1.56901, 0.0288532
 318.01, 0.980203, 0.140803, 397.547, 351.864, 21.4134, 21.118, 0.0360834, 25.8415, 9.0541e-17, 1.39538, 0.0290163
 324.01, 0.805624, 0.115726, 398.028, 353.284, 21.462, 21.143, 0.0359316, 25.667, 5.73391e-19, 1.22083, 0.0291584
 330.01, 0.630294, 0.0905399, 398.608, 359.952, 21.5134, 21.1699, 0.0357792, 25.4916, 3.94608e-19, 1.04553, 0.0292668
 336.01, 0.454511, 0.0652893, 399.175, 368.472, 21.5677, 21.1988, 0.0356263, 25.3159, 3.28811e-19, 0.869754, 0.0293043
 342.01, 0.27881, 0.0400503, 399.907, 376.343, 21.625, 21.2298, 0.0354735, 25.1402, 2.62678e-19, 0.694038, 0.0292431
 348.01, 0.10443, 0.0150011, 401.16, 391.817, 21.6853, 21.2628, 0.0353218, 24.9657, 1.95364e-19, 0.519556, 0.0288262
 354.01,-0.065416,-0.00939683, 404.756, 403.45, 21.7486, 21.2981, 0.0351739, 24.7956, 1.30276e-19, 0.349459, 0.0277943
 360.01,-0.223841,-0.0321541, 412.722, 415.612, 21.8151, 21.3355, 0.0350355, 24.6364, 6.96029e-20, 0.190285, 0.0246966
 366.01,-0.355242,-0.0510295, 433.984, 434.876, 21.8847, 21.3753, 0.03492, 24.5036, 2.06232e-20, 0.0574658, 0.0188721
 372.01,-0.40821,-0.0586382, 540.32, 561.529, 21.9574, 21.4174, 0.03487, 24.4461, 0.0000000E+000, 0.0000000E+000, 0.0000000E+000
 378.01,-0.40821,-0.0586382, 564.542, 585.89, 22.0334, 21.4619, 0.03487, 24.4461, 0.0000000E+000, 0.0000000E+000, 0.0000000E+000
 384.01,-0.40821,-0.0586382, 574.261, 595.666, 22.1127, 21.5089, 0.03487, 24.4461, 0.0000000E+000, 0.0000000E+000, 0.0000000E+000
 390.01,-0.40821,-0.0586382, 580.157, 601.597, 22.1953, 21.5585, 0.03487, 24.4461, 0.0000000E+000, 0.0000000E+000, 0.0000000E+000
 396.01,-0.40821,-0.0586382, 584.301, 605.763, 22.2812, 21.6105, 0.03487, 24.4461, 0.0000000E+000, 0.0000000E+000, 0.0000000E+000
 402.01,-0.40821,-0.0586382, 587.468, 608.933, 22.3705, 21.6652, 0.03487, 24.4461, 0.0000000E+000, 0.0000000E+000, 0.0000000E+000
 408.01,-0.40821,-0.0586382, 589.971, 611.459, 22.4633, 21.7226, 0.03487, 24.4461, 0.0000000E+000, 0.0000000E+000, 0.0000000E+000
 414.01,-0.40821,-0.0586382, 592.045, 613.546, 22.5596, 21.7827, 0.03487, 24.4461, 0.0000000E+000, 0.0000000E+000, 0.0000000E+000
 420.01,-0.40821,-0.0586382, 593.81, 615.313, 22.6596, 21.8456, 0.03487, 24.4461, 0.0000000E+000, 0.0000000E+000, 0.0000000E+000
 426.01,-0.40821,-0.0586382, 595.331, 616.844, 22.7636, 21.9114, 0.03487, 24.4461, 0.0000000E+000, 0.0000000E+000, 0.0000000E+000
 432.01,-0.40821,-0.0586382, 596.667, 618.181, 22.8717, 21.9801, 0.03487, 24.4461, 0.0000000E+000, 0.0000000E+000, 0.0000000E+000
 438.01,-0.40821,-0.0586382, 597.841, 619.367, 22.9845, 22.0518, 0.03487, 24.4461, 0.0000000E+000, 0.0000000E+000, 0.0000000E+000
 444.01,-0.40821,-0.0586382, 598.897, 620.43, 23.1025, 22.1267, 0.03487, 24.4461, 0.0000000E+000, 0.0000000E+000, 0.0000000E+000
 450.01,-0.40821,-0.0586382, 599.857, 621.394, 23.2261, 22.2049, 0.03487, 24.4461, 0.0000000E+000, 0.0000000E+000, 0.0000000E+000
 456.01,-0.40821,-0.0586382, 600.731, 622.268, 23.3561, 22.2867, 0.03487, 24.4461, 0.0000000E+000, 0.0000000E+000, 0.0000000E+000
 462.01,-0.40821,-0.0586382, 601.535, 623.07, 23.4929, 22.3723, 0.03487, 24.4461, 0.0000000E+000, 0.0000000E+000, 0.0000000E+000
 468.01,-0.40821,-0.0586382, 602.251, 623.813, 23.6372, 22.4619, 0.03487, 24.4461, 0.0000000E+000, 0.0000000E+000, 0.0000000E+000
 474.01,-0.40821,-0.0586382, 602.94, 624.495, 23.7895, 22.5558, 0.03487, 24.4461, 0.0000000E+000, 0.0000000E+000, 0.0000000E+000
 480.01,-0.40821,-0.0586382, 603.583, 625.13, 23.9502, 22.6543, 0.03487, 24.4461, 0.0000000E+000, 0.0000000E+000, 0.0000000E+000
 486.01,-0.40821,-0.0586382, 604.158, 625.726, 24.1199, 22.7577, 0.03487, 24.4461, 0.0000000E+000, 0.0000000E+000, 0.0000000E+000
 492.01,-0.40821,-0.0586382, 604.724, 626.281, 24.2987, 22.8664, 0.03487, 24.4461, 0.0000000E+000, 0.0000000E+000, 0.0000000E+000
 498.01,-0.40821,-0.0586382, 605.232, 626.808, 24.4869, 22.9806, 0.03487, 24.4461, 0.0000000E+000, 0.0000000E+000, 0.0000000E+000
 500,-0.40821,-0.0586382, 605.417, 626.969, 24.5517, 23.0198, 0.03487, 24.4461, 0.0000000E+000, 0.0000000E+000, 0.0000000E+000