File: PMMA/Calibration_Results/NIST_FSRI/All_Props/BUW_FZJ_B[NIST_FSRI]_Gasification_q50_R3_Mass.csv
s,kg/m2,,C,C,C,C,m,kg/m2,kg/m2,kg/m2,kg/m2/s
Time,"SD","MF","TW1","TSB1","TAL1","TB1","DX1","SD1","SD_11","SD_12","BR1"
 0.0000000E+000, 6.96203, 1.00008, 20.9, 20.9, 20.9, 20.9, 0.040972, 31.8164, 0.184256, 7.18598, 0.0000000E+000
 6.01, 6.96203, 1.00008, 185.562, 20.9206, 20.9, 20.9, 0.040972, 31.8164, 0.184256, 7.18598, 9.75811e-10
 12.01, 6.96203, 1.00008, 246.923, 22.3985, 20.9, 20.9, 0.040972, 31.8164, 0.184256, 7.18598, 4.28459e-07
 18, 6.962, 1.00007, 289.122, 28.4998, 20.9, 20.9, 0.040972, 31.8163, 0.184256, 7.18596, 1.31243e-05
 24, 6.96165, 1.00002, 321.219, 39.4141, 20.9, 20.9, 0.0409717, 31.816, 0.184256, 7.18563, 0.000129354
 30, 6.95946, 0.999707, 346.325, 53.8374, 20.9, 20.9, 0.04097, 31.814, 0.184256, 7.18358, 0.000664037
 36, 6.95129, 0.998534, 365.182, 70.4667, 20.9, 20.9, 0.0409636, 31.8062, 0.184256, 7.17578, 0.00211398
 42, 6.93105, 0.995626, 378.006, 88.3146, 20.9, 20.9, 0.0409473, 31.7865, 0.184256, 7.15615, 0.00454359
 48.01, 6.89473, 0.990408, 386.031, 106.673, 20.9, 20.9, 0.0409177, 31.7508, 0.184256, 7.12045, 0.00732835
 54.01, 6.84217, 0.982859, 391.042, 124.91, 20.9, 20.9, 0.0408747, 31.6989, 0.184256, 7.06852, 0.00992345
 60.01, 6.77506, 0.973218, 394.392, 142.634, 20.9, 20.9, 0.0408196, 31.6323, 0.184256, 7.00195, 0.0122076
 66.01, 6.69512, 0.961736, 396.819, 159.583, 20.9, 20.9, 0.0407539, 31.5529, 0.184256, 6.9225, 0.0142326
 72.01, 6.60369, 0.948602, 398.692, 175.621, 20.9, 20.9, 0.0406785, 31.4619, 0.184256, 6.83151, 0.0160649
 78, 6.50175, 0.933959, 400.207, 190.678, 20.9, 20.9, 0.0405946, 31.3605, 0.184256, 6.73015, 0.0177532
 84, 6.39003, 0.91791, 401.477, 204.813, 20.9001, 20.9, 0.0405024, 31.2492, 0.184256, 6.61882, 0.0193364
 90, 6.26909, 0.900537, 402.568, 218.032, 20.9001, 20.9, 0.0404026, 31.1286, 0.184256, 6.49826, 0.0208335
 96, 6.1394, 0.881907, 403.523, 230.372, 20.9003, 20.9, 0.0402955, 30.9993, 0.184256, 6.36892, 0.0222599
 102, 6.00133, 0.862075, 404.377, 241.871, 20.9005, 20.9001, 0.0401815, 30.8616, 0.184256, 6.2312, 0.0236297
 108, 5.85523, 0.841088, 405.141, 252.559, 20.901, 20.9001, 0.0400608, 30.7158, 0.184256, 6.08543, 0.0249437
 114, 5.70139, 0.818989, 405.842, 262.455, 20.9017, 20.9002, 0.0399337, 30.5623, 0.184256, 5.93191, 0.0262124
 120, 5.5401, 0.79582, 406.488, 271.571, 20.9028, 20.9004, 0.0398004, 30.4013, 0.184256, 5.77091, 0.0274347
 126, 5.37163, 0.77162, 407.092, 279.89, 20.9043, 20.9006, 0.0396612, 30.2331, 0.184256, 5.60274, 0.0286086
 132, 5.19632, 0.746437, 407.661, 287.419, 20.9064, 20.901, 0.0395163, 30.0581, 0.184256, 5.42771, 0.0297231
 138, 5.01456, 0.720327, 408.196, 294.19, 20.9092, 20.9015, 0.039366, 29.8766, 0.184256, 5.24621, 0.0307574
 144, 4.82683, 0.693361, 408.719, 300.224, 20.9129, 20.9023, 0.0392108, 29.6891, 0.184256, 5.05872, 0.0317117
 150, 4.63374, 0.665624, 409.228, 305.56, 20.9176, 20.9033, 0.0390511, 29.4962, 0.184256, 4.86584, 0.0325593
 156, 4.43595, 0.637211, 409.733, 310.282, 20.9235, 20.9047, 0.0388875, 29.2986, 0.184256, 4.66823, 0.0332901
 162.01, 4.23414, 0.608223, 410.236, 314.489, 20.9307, 20.9064, 0.0387203, 29.0966, 0.184256, 4.46624, 0.0339002
 168.01, 4.02904, 0.57876, 410.759, 318.265, 20.9394, 20.9087, 0.0385505, 28.8916, 0.184256, 4.26125, 0.0344034
 174.01, 3.82127, 0.548914, 411.303, 321.719, 20.9497, 20.9115, 0.0383786, 28.684, 0.184256, 4.05357, 0.0348045
 180.01, 3.6114, 0.518767, 411.875, 324.952, 20.9617, 20.9149, 0.0382049, 28.4742, 0.184256, 3.84378, 0.0351145
 186.01, 3.39988, 0.488383, 412.487, 328.055, 20.9756, 20.9192, 0.0380298, 28.2627, 0.184256, 3.63232, 0.0353567
 192.01, 3.18707, 0.457813, 413.16, 331.097, 20.9915, 20.9242, 0.0378537, 28.0499, 0.184256, 3.41955, 0.0355508
 198.01, 2.97324, 0.427098, 413.9, 334.134, 21.0095, 20.9301, 0.0376767, 27.8361, 0.184256, 3.20576, 0.0357042
 204.01, 2.75862, 0.396268, 414.719, 337.217, 21.0297, 20.9371, 0.037499, 27.6215, 0.184256, 2.99117, 0.0358227
 210.01, 2.54337, 0.365348, 415.637, 340.393, 21.0522, 20.9452, 0.0373208, 27.4063, 0.184256, 2.77595, 0.0359154
 216.01, 2.32765, 0.33436, 416.672, 343.699, 21.077, 20.9545, 0.0371422, 27.1906, 0.184256, 2.56024, 0.0359843
 222.01, 2.11157, 0.303321, 417.851, 347.173, 21.1043, 20.9651, 0.0369633, 26.9745, 0.184256, 2.34417, 0.0360333
 228.01, 1.89527, 0.27225, 419.186, 350.86, 21.1342, 20.977, 0.0367843, 26.7583, 0.184256, 2.12788, 0.0360594
 234.01, 1.67877, 0.24115, 420.493, 354.81, 21.1665, 20.9904, 0.036605, 26.5418, 0.184256, 1.91139, 0.0361106
 240.01, 1.46191, 0.209999, 421.622, 359.081, 21.2015, 21.0054, 0.0364255, 26.3249, 0.184256, 1.69454, 0.0361687
 246.01, 1.2448, 0.178812, 422.827, 363.763, 21.239, 21.022, 0.0362458, 26.1078, 0.184256, 1.47744, 0.0361917
 252.01, 1.02765, 0.147619, 424.284, 368.979, 21.2793, 21.0402, 0.036066, 25.8907, 0.184256, 1.26029, 0.0361841
 258.01, 0.810721, 0.116458, 426.045, 374.908, 21.3221, 21.0603, 0.0358864, 25.6737, 0.184256, 1.04334, 0.0361204
 264.01, 0.594441, 0.0853897, 428.304, 381.835, 21.3677, 21.0821, 0.0357073, 25.4574, 0.184256, 0.827025, 0.0359645
 270.01, 0.379655, 0.0545364, 431.493, 390.266, 21.4159, 21.1058, 0.0355294, 25.2425, 0.184256, 0.612155, 0.0356158
 276.01, 0.16819, 0.02416, 436.607, 401.273, 21.4668, 21.1315, 0.0353541, 25.0309, 0.184256, 0.400499, 0.034827
 282.01,-0.0349958,-0.00502706, 446.631, 417.936, 21.5203, 21.1591, 0.0351855, 24.8272, 0.184256, 0.196788, 0.0326785
 288.01,-0.20507,-0.0294578, 478.763, 458.834, 21.5765, 21.1888, 0.0350421, 24.654, 0.184256, 0.0236729, 0.0204987
 294.01,-0.223954,-0.0321704, 574.435, 563.916, 21.6353, 21.2205, 0.0350225, 24.6304, 0.184256, 2.81178e-19, 1.37503e-34
 300.01,-0.223954,-0.0321704, 600.956, 593.063, 21.6968, 21.2543, 0.0350225, 24.6304, 0.184256, 2.81178e-19, 2.25016e-33
 306.01,-0.223954,-0.0321704, 611.303, 604.648, 21.7608, 21.2902, 0.0350225, 24.6304, 0.184256, 2.81178e-19, 6.44747e-33
 312.01,-0.223954,-0.0321704, 616.929, 611.003, 21.8274, 21.3283, 0.0350225, 24.6304, 0.184256, 2.81178e-19, 1.13314e-32
 318.01,-0.223954,-0.0321704, 620.587, 615.156, 21.8966, 21.3685, 0.0350225, 24.6304, 0.184256, 2.81178e-19, 1.62977e-32
 324.01,-0.223954,-0.0321704, 623.231, 618.167, 21.9683, 21.4109, 0.0350225, 24.6304, 0.184256, 2.81178e-19, 2.11613e-32
 330.01,-0.223954,-0.0321704, 625.27, 620.495, 22.0426, 21.4556, 0.0350225, 24.6304, 0.184256, 2.81178e-19, 2.58597e-32
 336.01,-0.223954,-0.0321704, 626.904, 622.363, 22.1193, 21.5024, 0.0350225, 24.6304, 0.184256, 2.81178e-19, 3.03512e-32
 342.01,-0.223954,-0.0321704, 628.257, 623.913, 22.1986, 21.5515, 0.0350225, 24.6304, 0.184256, 2.81178e-19, 3.46439e-32
 348.01,-0.223954,-0.0321704, 629.41, 625.234, 22.2804, 21.6028, 0.0350225, 24.6304, 0.184256, 2.81178e-19, 3.87629e-32
 354.01,-0.223954,-0.0321704, 630.412, 626.382, 22.3647, 21.6563, 0.0350225, 24.6304, 0.184256, 2.81178e-19, 4.27324e-32
 360.01,-0.223954,-0.0321704, 631.288, 627.389, 22.4516, 21.7121, 0.0350225, 24.6304, 0.184256, 2.81178e-19, 4.65282e-32
 366.01,-0.223954,-0.0321704, 632.073, 628.29, 22.5412, 21.7702, 0.0350225, 24.6304, 0.184256, 2.81178e-19, 5.02064e-32
 372.01,-0.223954,-0.0321704, 632.774, 629.096, 22.6335, 21.8306, 0.0350225, 24.6304, 0.184256, 2.81178e-19, 5.37351e-32
 378.01,-0.223954,-0.0321704, 633.406, 629.821, 22.7288, 21.8933, 0.0350225, 24.6304, 0.184256, 2.81178e-19, 5.71197e-32
 384.01,-0.223954,-0.0321704, 633.985, 630.487, 22.8271, 21.9583, 0.0350225, 24.6304, 0.184256, 2.81178e-19, 6.04063e-32
 390.01,-0.223954,-0.0321704, 634.513, 631.095, 22.9286, 22.0258, 0.0350225, 24.6304, 0.184256, 2.81178e-19, 6.35637e-32
 396.01,-0.223954,-0.0321704, 635.002, 631.658, 23.0335, 22.0958, 0.0350225, 24.6304, 0.184256, 2.81178e-19, 6.66302e-32
 402.01,-0.223954,-0.0321704, 635.455, 632.18, 23.1419, 22.1682, 0.0350225, 24.6304, 0.184256, 2.81178e-19, 6.96029e-32
 408.01,-0.223954,-0.0321704, 635.876, 632.664, 23.2541, 22.2433, 0.0350225, 24.6304, 0.184256, 2.81178e-19, 7.24808e-32
 414.01,-0.223954,-0.0321704, 636.275, 633.124, 23.3701, 22.3211, 0.0350225, 24.6304, 0.184256, 2.81178e-19, 7.53168e-32
 420.01,-0.223954,-0.0321704, 636.643, 633.548, 23.4902, 22.4017, 0.0350225, 24.6304, 0.184256, 2.81178e-19, 7.80259e-32
 426.01,-0.223954,-0.0321704, 636.993, 633.95, 23.6143, 22.4851, 0.0350225, 24.6304, 0.184256, 2.81178e-19, 8.06904e-32
 432.01,-0.223954,-0.0321704, 637.321, 634.329, 23.7426, 22.5714, 0.0350225, 24.6304, 0.184256, 2.81178e-19, 8.32749e-32
 438.01,-0.223954,-0.0321704, 637.628, 634.683, 23.8753, 22.6608, 0.0350225, 24.6304, 0.184256, 2.81178e-19, 8.57659e-32
 444.01,-0.223954,-0.0321704, 637.923, 635.023, 24.0122, 22.7533, 0.0350225, 24.6304, 0.184256, 2.81178e-19, 8.82205e-32
 450.01,-0.223954,-0.0321704, 638.2, 635.342, 24.1535, 22.849, 0.0350225, 24.6304, 0.184256, 2.81178e-19, 9.0589e-32
 456.01,-0.223954,-0.0321704, 638.466, 635.65, 24.2993, 22.948, 0.0350225, 24.6304, 0.184256, 2.81178e-19, 9.29341e-32
 462.01,-0.223954,-0.0321704, 638.723, 635.946, 24.4494, 23.0504, 0.0350225, 24.6304, 0.184256, 2.81178e-19, 9.52454e-32
 468.01,-0.223954,-0.0321704, 638.96, 636.219, 24.6039, 23.1561, 0.0350225, 24.6304, 0.184256, 2.81178e-19, 9.74287e-32
 474.01,-0.223954,-0.0321704, 639.195, 636.49, 24.7629, 23.2653, 0.0350225, 24.6304, 0.184256, 2.81178e-19, 9.9638e-32
 480.01,-0.223954,-0.0321704, 639.414, 636.743, 24.9261, 23.3781, 0.0350225, 24.6304, 0.184256, 2.81178e-19, 1.0175e-31
 486.01,-0.223954,-0.0321704, 639.626, 636.988, 25.0937, 23.4944, 0.0350225, 24.6304, 0.184256, 2.81178e-19, 1.03836e-31
 492.01,-0.223954,-0.0321704, 639.834, 637.228, 25.2656, 23.6143, 0.0350225, 24.6304, 0.184256, 2.81178e-19, 1.05912e-31
 498.01,-0.223954,-0.0321704, 640.024, 637.447, 25.4417, 23.7378, 0.0350225, 24.6304, 0.184256, 2.81178e-19, 1.0785e-31
 500,-0.223954,-0.0321704, 640.088, 637.521, 25.5012, 23.7797, 0.0350225, 24.6304, 0.184256, 2.81178e-19, 1.08515e-31