File: PMMA/Calibration_Results/NIST_FSRI/All_Props/BUW_FZJ_A[NIST_FSRI]_Gasification_q50_R3_Mass.csv
s,kg/m2,,C,C,C,C,m,kg/m2,kg/m2,kg/m2,kg/m2/s
Time,"SD","MF","TW1","TSB1","TAL1","TB1","DX1","SD1","SD_11","SD_12","BR1"
 0.0000000E+000, 6.96116, 0.999951, 20.9, 20.9, 20.9, 20.9, 0.041644, 31.8155, 0.184234, 7.18514, 0.0000000E+000
 6.01, 6.96112, 0.999945, 184.362, 20.9007, 20.9, 20.9, 0.041644, 31.8155, 0.184199, 7.18514, 2.45366e-05
 12.01, 6.96045, 0.999849, 244.238, 21.1319, 20.9, 20.9, 0.0416434, 31.8148, 0.183581, 7.18514, 0.00022654
 18, 6.95764, 0.999445, 284.767, 22.8987, 20.9, 20.9, 0.0416411, 31.8121, 0.180911, 7.18511, 0.00071045
 24, 6.9515, 0.998564, 315.188, 27.3019, 20.9, 20.9, 0.041636, 31.8061, 0.175161, 7.18487, 0.00127347
 30, 6.94229, 0.997241, 339.252, 34.3791, 20.9, 20.9, 0.0416281, 31.7971, 0.167321, 7.18362, 0.00175419
 36, 6.92963, 0.995422, 358.521, 43.6505, 20.9, 20.9, 0.0416172, 31.7846, 0.159102, 7.17936, 0.00248606
 42, 6.9106, 0.992689, 373.527, 54.5541, 20.9, 20.9, 0.0416005, 31.7659, 0.151191, 7.16859, 0.00385684
 48.01, 6.88116, 0.98846, 384.667, 66.6133, 20.9, 20.9, 0.0415743, 31.7369, 0.143613, 7.14718, 0.00587184
 54.01, 6.83838, 0.982314, 392.562, 79.3795, 20.9, 20.9, 0.0415359, 31.6947, 0.136322, 7.11225, 0.008219
 60.01, 6.78136, 0.974123, 398.083, 92.5431, 20.9, 20.9, 0.0414844, 31.6382, 0.129214, 7.0629, 0.0105741
 66.01, 6.71069, 0.963972, 402.006, 105.842, 20.9, 20.9, 0.0414202, 31.5681, 0.122192, 6.99978, 0.0127641
 72.01, 6.62755, 0.952029, 404.897, 119.078, 20.9, 20.9, 0.0413446, 31.4854, 0.115152, 6.92416, 0.0147528
 78, 6.53307, 0.938457, 407.113, 132.084, 20.9, 20.9, 0.0412586, 31.3915, 0.108005, 6.83742, 0.0165619
 84, 6.42816, 0.923387, 408.893, 144.813, 20.9, 20.9, 0.0411628, 31.2871, 0.100632, 6.7403, 0.0182406
 90, 6.31352, 0.90692, 410.373, 157.192, 20.9, 20.9, 0.0410581, 31.1728, 0.0929646, 6.63373, 0.0198214
 96, 6.18966, 0.889128, 411.628, 169.196, 20.9001, 20.9, 0.0409449, 31.0493, 0.0849403, 6.51827, 0.0213244
 102, 6.05696, 0.870066, 412.728, 180.823, 20.9002, 20.9, 0.0408236, 30.917, 0.0765306, 6.39434, 0.0227745
 108, 5.91574, 0.849779, 413.698, 192.085, 20.9004, 20.9, 0.0406945, 30.7761, 0.0677515, 6.26225, 0.0241721
 114, 5.76629, 0.828311, 414.57, 203.006, 20.9007, 20.9001, 0.0405578, 30.627, 0.0586787, 6.1222, 0.0255226
 120, 5.60889, 0.805701, 415.361, 213.618, 20.9012, 20.9002, 0.0404137, 30.4699, 0.0494586, 5.97435, 0.026823
 126, 5.44385, 0.781994, 416.087, 223.956, 20.902, 20.9003, 0.0402626, 30.3052, 0.0403139, 5.81877, 0.0280733
 132, 5.27149, 0.757235, 416.758, 234.058, 20.9031, 20.9004, 0.0401048, 30.1331, 0.0315356, 5.65549, 0.0292713
 138, 5.0921, 0.731466, 417.38, 243.954, 20.9046, 20.9007, 0.0399404, 29.954, 0.0234579, 5.48446, 0.0304213
 144, 4.90591, 0.70472, 417.968, 253.667, 20.9066, 20.9011, 0.0397696, 29.7681, 0.0164113, 5.3056, 0.0315459
 150, 4.71302, 0.677012, 418.521, 263.194, 20.9092, 20.9016, 0.0395926, 29.5755, 0.0106594, 5.11874, 0.0326648
 156, 4.51331, 0.648324, 419.036, 272.512, 20.9126, 20.9024, 0.0394093, 29.3761, 0.00633245, 4.92364, 0.0338105
 162.01, 4.30648, 0.618613, 419.537, 281.549, 20.9169, 20.9033, 0.039219, 29.1692, 0.00338061, 4.71972, 0.0350354
 168.01, 4.09205, 0.587811, 420.015, 290.236, 20.9221, 20.9046, 0.0390219, 28.9551, 0.00159745, 4.50739, 0.0363475
 174.01, 3.86953, 0.555847, 420.461, 298.548, 20.9284, 20.9062, 0.0388174, 28.7329, 0.000655846, 4.28614, 0.0377296
 180.01, 3.63856, 0.522669, 420.867, 306.422, 20.936, 20.9083, 0.0386051, 28.5023, 0.00022997, 4.05594, 0.0391445
 186.01, 3.39905, 0.488264, 421.253, 313.865, 20.9448, 20.9108, 0.0383848, 28.2631, 6.77759e-05, 3.81693, 0.0405593
 192.01, 3.15126, 0.45267, 421.611, 320.912, 20.9552, 20.9138, 0.038157, 28.0157, 1.65292e-05, 3.56952, 0.0419138
 198.01, 2.89567, 0.415955, 421.942, 327.614, 20.9671, 20.9175, 0.0379219, 27.7604, 3.28377e-06, 3.31424, 0.043166
 204.01, 2.63295, 0.378216, 422.25, 334.072, 20.9807, 20.9219, 0.0376802, 27.4979, 5.22397e-07, 3.05179, 0.0442933
 210.01, 2.36387, 0.339563, 422.563, 340.415, 20.996, 20.9271, 0.0374326, 27.2291, 6.51544e-08, 2.78295, 0.0452984
 216.01, 2.08913, 0.300098, 422.899, 346.792, 21.0133, 20.9332, 0.0371799, 26.9546, 6.19515e-09, 2.50843, 0.0461926
 222.01, 1.80935, 0.259908, 423.277, 353.37, 21.0325, 20.9401, 0.0369224, 26.675, 4.32276e-10, 2.22884, 0.046986
 228.01, 1.52504, 0.219068, 423.755, 360.349, 21.0537, 20.9481, 0.0366608, 26.3908, 2.09812e-11, 1.9447, 0.0477092
 234.01, 1.23659, 0.177632, 424.405, 367.957, 21.0771, 20.9572, 0.0363953, 26.1025, 6.56358e-13, 1.65641, 0.0483729
 240.01, 0.944371, 0.135656, 425.36, 376.498, 21.1027, 20.9675, 0.0361263, 25.8105, 1.18434e-14, 1.36434, 0.0489682
 246.01, 0.648943, 0.0932189, 426.873, 386.438, 21.1306, 20.9791, 0.0358544, 25.5151, 1.04424e-16, 1.06902, 0.0494424
 252.01, 0.351398, 0.0504774, 429.547, 398.601, 21.1609, 20.9919, 0.0355804, 25.2176, 7.86762e-19, 0.771526, 0.0496556
 258.01, 0.0543941, 0.00781356, 435.071, 414.94, 21.1935, 21.0062, 0.0353068, 24.9205, 4.29409e-19, 0.474401, 0.0491735
 264.01,-0.232428,-0.0333877, 450.085, 441.908, 21.2285, 21.022, 0.035042, 24.6329, 3.13103e-19, 0.186735, 0.0457395
 270.01,-0.40821,-0.0586382, 559.402, 512.464, 21.2661, 21.0393, 0.03487, 24.4461, 2.37973e-19, 1.14159e-13, 2.88841e-13
 276.01,-0.40821,-0.0586382, 594.472, 565.868, 21.3062, 21.0582, 0.03487, 24.4461, 2.37973e-19, 2.16264e-19, 0.0000000E+000
 282.01,-0.40821,-0.0586382, 604.53, 581.086, 21.3489, 21.0789, 0.03487, 24.4461, 2.37973e-19, 2.16264e-19, 0.0000000E+000
 288.01,-0.40821,-0.0586382, 610.066, 589.414, 21.3942, 21.1013, 0.03487, 24.4461, 2.37973e-19, 2.16264e-19, 0.0000000E+000
 294.01,-0.40821,-0.0586382, 613.76, 594.961, 21.4422, 21.1255, 0.03487, 24.4461, 2.37973e-19, 2.16264e-19, 0.0000000E+000
 300.01,-0.40821,-0.0586382, 616.493, 599.056, 21.4928, 21.1515, 0.03487, 24.4461, 2.37973e-19, 2.16264e-19, 0.0000000E+000
 306.01,-0.40821,-0.0586382, 618.641, 602.262, 21.5461, 21.1795, 0.03487, 24.4461, 2.37973e-19, 2.16264e-19, 0.0000000E+000
 312.01,-0.40821,-0.0586382, 620.389, 604.87, 21.6021, 21.2095, 0.03487, 24.4461, 2.37973e-19, 2.16264e-19, 0.0000000E+000
 318.01,-0.40821,-0.0586382, 621.839, 607.04, 21.6609, 21.2414, 0.03487, 24.4461, 2.37973e-19, 2.16264e-19, 0.0000000E+000
 324.01,-0.40821,-0.0586382, 623.088, 608.9, 21.7224, 21.2755, 0.03487, 24.4461, 2.37973e-19, 2.16264e-19, 0.0000000E+000
 330.01,-0.40821,-0.0586382, 624.186, 610.527, 21.7868, 21.3117, 0.03487, 24.4461, 2.37973e-19, 2.16264e-19, 0.0000000E+000
 336.01,-0.40821,-0.0586382, 625.137, 611.954, 21.8542, 21.35, 0.03487, 24.4461, 2.37973e-19, 2.16264e-19, 0.0000000E+000
 342.01,-0.40821,-0.0586382, 626.002, 613.236, 21.9245, 21.3906, 0.03487, 24.4461, 2.37973e-19, 2.16264e-19, 0.0000000E+000
 348.01,-0.40821,-0.0586382, 626.78, 614.39, 21.9979, 21.4334, 0.03487, 24.4461, 2.37973e-19, 2.16264e-19, 0.0000000E+000
 354.01,-0.40821,-0.0586382, 627.485, 615.438, 22.0747, 21.4785, 0.03487, 24.4461, 2.37973e-19, 2.16264e-19, 0.0000000E+000
 360.01,-0.40821,-0.0586382, 628.127, 616.392, 22.1549, 21.5261, 0.03487, 24.4461, 2.37973e-19, 2.16264e-19, 0.0000000E+000
 366.01,-0.40821,-0.0586382, 628.711, 617.263, 22.2387, 21.5762, 0.03487, 24.4461, 2.37973e-19, 2.16264e-19, 0.0000000E+000
 372.01,-0.40821,-0.0586382, 629.255, 618.074, 22.3264, 21.6288, 0.03487, 24.4461, 2.37973e-19, 2.16264e-19, 0.0000000E+000
 378.01,-0.40821,-0.0586382, 629.771, 618.83, 22.4181, 21.6841, 0.03487, 24.4461, 2.37973e-19, 2.16264e-19, 0.0000000E+000
 384.01,-0.40821,-0.0586382, 630.242, 619.532, 22.5139, 21.7421, 0.03487, 24.4461, 2.37973e-19, 2.16264e-19, 0.0000000E+000
 390.01,-0.40821,-0.0586382, 630.678, 620.184, 22.6141, 21.803, 0.03487, 24.4461, 2.37973e-19, 2.16264e-19, 0.0000000E+000
 396.01,-0.40821,-0.0586382, 631.098, 620.799, 22.7186, 21.8669, 0.03487, 24.4461, 2.37973e-19, 2.16264e-19, 0.0000000E+000
 402.01,-0.40821,-0.0586382, 631.487, 621.382, 22.8278, 21.9338, 0.03487, 24.4461, 2.37973e-19, 2.16264e-19, 0.0000000E+000
 408.01,-0.40821,-0.0586382, 631.852, 621.93, 22.9415, 22.004, 0.03487, 24.4461, 2.37973e-19, 2.16264e-19, 0.0000000E+000
 414.01,-0.40821,-0.0586382, 632.207, 622.449, 23.06, 22.0773, 0.03487, 24.4461, 2.37973e-19, 2.16264e-19, 0.0000000E+000
 420.01,-0.40821,-0.0586382, 632.529, 622.935, 23.1832, 22.1541, 0.03487, 24.4461, 2.37973e-19, 2.16264e-19, 0.0000000E+000
 426.01,-0.40821,-0.0586382, 632.848, 623.4, 23.3112, 22.2344, 0.03487, 24.4461, 2.37973e-19, 2.16264e-19, 0.0000000E+000
 432.01,-0.40821,-0.0586382, 633.146, 623.838, 23.444, 22.3181, 0.03487, 24.4461, 2.37973e-19, 2.16264e-19, 0.0000000E+000
 438.01,-0.40821,-0.0586382, 633.431, 624.267, 23.5816, 22.4056, 0.03487, 24.4461, 2.37973e-19, 2.16264e-19, 0.0000000E+000
 444.01,-0.40821,-0.0586382, 633.704, 624.666, 23.7239, 22.4967, 0.03487, 24.4461, 2.37973e-19, 2.16264e-19, 0.0000000E+000
 450.01,-0.40821,-0.0586382, 633.957, 625.049, 23.871, 22.5916, 0.03487, 24.4461, 2.37973e-19, 2.16264e-19, 0.0000000E+000
 456.01,-0.40821,-0.0586382, 634.213, 625.423, 24.0228, 22.6903, 0.03487, 24.4461, 2.37973e-19, 2.16264e-19, 0.0000000E+000
 462.01,-0.40821,-0.0586382, 634.45, 625.771, 24.1793, 22.7928, 0.03487, 24.4461, 2.37973e-19, 2.16264e-19, 0.0000000E+000
 468.01,-0.40821,-0.0586382, 634.678, 626.117, 24.3404, 22.8993, 0.03487, 24.4461, 2.37973e-19, 2.16264e-19, 0.0000000E+000
 474.01,-0.40821,-0.0586382, 634.901, 626.443, 24.506, 23.0097, 0.03487, 24.4461, 2.37973e-19, 2.16264e-19, 0.0000000E+000
 480.01,-0.40821,-0.0586382, 635.116, 626.756, 24.6761, 23.1241, 0.03487, 24.4461, 2.37973e-19, 2.16264e-19, 0.0000000E+000
 486.01,-0.40821,-0.0586382, 635.314, 627.059, 24.8506, 23.2425, 0.03487, 24.4461, 2.37973e-19, 2.16264e-19, 0.0000000E+000
 492.01,-0.40821,-0.0586382, 635.514, 627.351, 25.0295, 23.3648, 0.03487, 24.4461, 2.37973e-19, 2.16264e-19, 0.0000000E+000
 498.01,-0.40821,-0.0586382, 635.704, 627.63, 25.2126, 23.4912, 0.03487, 24.4461, 2.37973e-19, 2.16264e-19, 0.0000000E+000
 500,-0.40821,-0.0586382, 635.768, 627.723, 25.2744, 23.5341, 0.03487, 24.4461, 2.37973e-19, 2.16264e-19, 0.0000000E+000