File: PMMA/Calibration_Results/NIST_FSRI/All_Props/DBI_4[NIST_FSRI]_Gasification_q50_R3_Mass.csv
s,kg/m2,,C,C,C,C,m,kg/m2,kg/m2,kg/m2/s
Time,"SD","MF","TW1","TSB1","TAL1","TB1","DX1","SD1","SD_11","BR1"
 0.0000000E+000, 6.96199, 1.00007, 20.9, 20.9, 20.9, 20.9, 0.041108, 31.8163, 7.3702, 0.0000000E+000
 5.51, 6.96199, 1.00007, 227.429, 20.9, 20.9, 20.9, 0.041108, 31.8163, 7.3702, 1.5316e-07
 11.01, 6.96195, 1.00006, 301.825, 20.9009, 20.9, 20.9, 0.041108, 31.8163, 7.37017, 2.17496e-05
 16.51, 6.96127, 0.999967, 349.587, 20.9391, 20.9, 20.9, 0.0411075, 31.8157, 7.36955, 0.000278043
 22, 6.95714, 0.999373, 382.392, 21.2115, 20.9, 20.9, 0.0411042, 31.8118, 7.36568, 0.00130366
 27.5, 6.94407, 0.997496, 404.256, 22.0869, 20.9, 20.9, 0.0410936, 31.7993, 7.35314, 0.00340923
 33, 6.9173, 0.993651, 417.865, 23.932, 20.9, 20.9, 0.0410715, 31.7732, 7.32705, 0.00610027
 38.5, 6.87584, 0.987695, 426.105, 26.9863, 20.9, 20.9, 0.0410369, 31.7323, 7.28623, 0.00867738
 44.01, 6.82139, 0.979874, 431.235, 31.3525, 20.9, 20.9, 0.0409912, 31.6783, 7.23221, 0.0108462
 49.51, 6.75632, 0.970526, 434.59, 37.0349, 20.9, 20.9, 0.0409365, 31.6137, 7.16756, 0.0125965
 55.01, 6.68265, 0.959944, 436.913, 43.9944, 20.9, 20.9, 0.0408744, 31.5403, 7.09423, 0.0140148
 60.51, 6.60196, 0.948352, 438.608, 51.7271, 20.9, 20.9, 0.0408064, 31.4599, 7.01381, 0.0151869
 66.01, 6.51539, 0.935918, 439.891, 60.0774, 20.9, 20.9, 0.0407333, 31.3736, 6.92749, 0.0161745
 71.51, 6.42381, 0.922762, 440.91, 68.9561, 20.9, 20.9, 0.040656, 31.2822, 6.83611, 0.0170318
 77, 6.32782, 0.908974, 441.737, 78.2208, 20.9, 20.9, 0.040575, 31.1866, 6.74049, 0.0177903
 82.5, 6.22788, 0.894618, 442.433, 87.8134, 20.9, 20.9, 0.0404906, 31.0868, 6.64072, 0.0184803
 88, 6.12429, 0.879738, 443.038, 97.6644, 20.9, 20.9, 0.040403, 30.9834, 6.53729, 0.0191233
 93.5, 6.01728, 0.864365, 443.577, 107.796, 20.9, 20.9, 0.0403126, 30.8765, 6.43042, 0.0197348
 99, 5.90696, 0.848519, 444.065, 118.174, 20.9, 20.9, 0.0402193, 30.7664, 6.32026, 0.0203253
 104.5, 5.79343, 0.83221, 444.516, 128.688, 20.9, 20.9, 0.0401234, 30.653, 6.20687, 0.0209054
 110, 5.67671, 0.815443, 444.934, 139.215, 20.9001, 20.9, 0.0400247, 30.5364, 6.09029, 0.0214805
 115.5, 5.55679, 0.798217, 445.346, 149.556, 20.9002, 20.9, 0.0399233, 30.4166, 5.97052, 0.0220667
 121, 5.43365, 0.780528, 445.739, 159.702, 20.9003, 20.9, 0.0398192, 30.2936, 5.84752, 0.0226577
 126.5, 5.30723, 0.762369, 446.12, 169.703, 20.9005, 20.9001, 0.0397124, 30.1674, 5.72126, 0.0232597
 132, 5.1775, 0.743733, 446.482, 179.577, 20.9008, 20.9001, 0.0396027, 30.0378, 5.59168, 0.0238667
 137.5, 5.04438, 0.724611, 446.821, 189.336, 20.9013, 20.9002, 0.0394902, 29.9048, 5.45871, 0.0244801
 143, 4.90783, 0.704996, 447.161, 198.985, 20.9019, 20.9003, 0.0393747, 29.7684, 5.32232, 0.0251106
 148.5, 4.76779, 0.68488, 447.488, 208.531, 20.9028, 20.9004, 0.0392563, 29.6286, 5.18244, 0.0257537
 154, 4.62419, 0.664253, 447.803, 217.972, 20.904, 20.9006, 0.0391349, 29.4851, 5.03901, 0.0264091
 159.51, 4.47696, 0.643103, 448.102, 227.317, 20.9055, 20.9009, 0.0390103, 29.3379, 4.89181, 0.0270765
 165.01, 4.32598, 0.621415, 448.386, 236.551, 20.9074, 20.9013, 0.0388826, 29.187, 4.74086, 0.0277607
 170.51, 4.17117, 0.599177, 448.67, 245.66, 20.9098, 20.9019, 0.0387517, 29.0323, 4.58622, 0.0284684
 176.01, 4.01241, 0.576372, 448.948, 254.641, 20.9128, 20.9026, 0.0386175, 28.8738, 4.42763, 0.0292004
 181.51, 3.84959, 0.552982, 449.213, 263.478, 20.9164, 20.9034, 0.0384798, 28.7111, 4.26499, 0.0299504
 187.01, 3.68256, 0.52899, 449.468, 272.154, 20.9208, 20.9045, 0.0383386, 28.5443, 4.09815, 0.0307228
 192.51, 3.51121, 0.504376, 449.708, 280.615, 20.9259, 20.9059, 0.0381937, 28.3731, 3.92699, 0.0315125
 198.01, 3.33544, 0.479127, 449.954, 288.848, 20.9319, 20.9075, 0.0380451, 28.1975, 3.75141, 0.0323274
 203.51, 3.15519, 0.453234, 450.186, 296.854, 20.9389, 20.9095, 0.0378927, 28.0175, 3.57136, 0.0331456
 209.01, 2.97044, 0.426695, 450.411, 304.605, 20.9469, 20.9119, 0.0377365, 27.8329, 3.3868, 0.033964
 214.51, 2.78124, 0.399517, 450.625, 312.099, 20.9561, 20.9148, 0.0375766, 27.6439, 3.1978, 0.0347654
 220.01, 2.58771, 0.371717, 450.82, 319.368, 20.9665, 20.9181, 0.0374129, 27.4506, 3.00445, 0.0355316
 225.51, 2.39003, 0.343322, 451.028, 326.445, 20.9781, 20.922, 0.0372458, 27.2531, 2.80695, 0.0362684
 231.01, 2.18847, 0.314368, 451.235, 333.388, 20.9911, 20.9265, 0.0370753, 27.0517, 2.60556, 0.036954
 236.51, 1.98332, 0.284898, 451.45, 340.294, 21.0056, 20.9316, 0.0369018, 26.8467, 2.40055, 0.0375831
 242.01, 1.77487, 0.254955, 451.687, 347.277, 21.0215, 20.9375, 0.0367255, 26.6384, 2.19224, 0.0381579
 247.51, 1.5634, 0.224578, 451.968, 354.467, 21.0391, 20.9441, 0.0365466, 26.427, 1.9809, 0.0386847
 253.01, 1.34918, 0.193806, 452.317, 362.028, 21.0583, 20.9516, 0.0363654, 26.2129, 1.76679, 0.0391668
 258.51, 1.13242, 0.162669, 452.781, 370.153, 21.0791, 20.9599, 0.036182, 25.9963, 1.55014, 0.0396105
 264.01, 0.913323, 0.131196, 453.431, 379.077, 21.1018, 20.9692, 0.0359966, 25.7773, 1.33114, 0.0400149
 269.51, 0.692148, 0.0994252, 454.404, 389.124, 21.1262, 20.9795, 0.0358095, 25.5562, 1.11005, 0.0403681
 275.01, 0.469313, 0.0674155, 455.936, 400.774, 21.1525, 20.9908, 0.035621, 25.3334, 0.887272, 0.0406176
 280.51, 0.245658, 0.0352881, 458.582, 414.828, 21.1808, 21.0033, 0.0354317, 25.1097, 0.663625, 0.0406553
 286.01, 0.0231738, 0.00332886, 463.69, 432.873, 21.2109, 21.0169, 0.0352433, 24.8871, 0.441017, 0.0401559
 291.51,-0.192614,-0.0276685, 475.653, 459.264, 21.2431, 21.0318, 0.0350602, 24.6708, 0.224708, 0.0380303
 297.01,-0.376256,-0.0540482, 517.824, 515.624, 21.2774, 21.0479, 0.0349022, 24.4841, 0.0380161, 0.0257989
 302.51,-0.40821,-0.0586382, 590.663, 560.073, 21.3137, 21.0653, 0.03487, 24.4461, 2.17015e-19, 0.0000000E+000
 308.01,-0.40821,-0.0586382, 602.662, 578.266, 21.3521, 21.0841, 0.03487, 24.4461, 2.17015e-19, 0.0000000E+000
 313.51,-0.40821,-0.0586382, 608.688, 587.346, 21.3927, 21.1044, 0.03487, 24.4461, 2.17015e-19, 0.0000000E+000
 319.01,-0.40821,-0.0586382, 612.574, 593.184, 21.4354, 21.1261, 0.03487, 24.4461, 2.17015e-19, 0.0000000E+000
 324.51,-0.40821,-0.0586382, 615.416, 597.435, 21.4804, 21.1493, 0.03487, 24.4461, 2.17015e-19, 0.0000000E+000
 330.01,-0.40821,-0.0586382, 617.63, 600.739, 21.5276, 21.1741, 0.03487, 24.4461, 2.17015e-19, 0.0000000E+000
 335.51,-0.40821,-0.0586382, 619.42, 603.42, 21.577, 21.2005, 0.03487, 24.4461, 2.17015e-19, 0.0000000E+000
 341.01,-0.40821,-0.0586382, 620.919, 605.653, 21.6287, 21.2285, 0.03487, 24.4461, 2.17015e-19, 0.0000000E+000
 346.51,-0.40821,-0.0586382, 622.192, 607.554, 21.6828, 21.2582, 0.03487, 24.4461, 2.17015e-19, 0.0000000E+000
 352.01,-0.40821,-0.0586382, 623.297, 609.209, 21.7393, 21.2896, 0.03487, 24.4461, 2.17015e-19, 0.0000000E+000
 357.51,-0.40821,-0.0586382, 624.284, 610.669, 21.7981, 21.3228, 0.03487, 24.4461, 2.17015e-19, 0.0000000E+000
 363.01,-0.40821,-0.0586382, 625.15, 611.973, 21.8594, 21.3578, 0.03487, 24.4461, 2.17015e-19, 0.0000000E+000
 368.51,-0.40821,-0.0586382, 625.944, 613.151, 21.9233, 21.3947, 0.03487, 24.4461, 2.17015e-19, 0.0000000E+000
 374.01,-0.40821,-0.0586382, 626.665, 614.222, 21.9899, 21.4334, 0.03487, 24.4461, 2.17015e-19, 0.0000000E+000
 379.51,-0.40821,-0.0586382, 627.324, 615.202, 22.0593, 21.4741, 0.03487, 24.4461, 2.17015e-19, 0.0000000E+000
 385.01,-0.40821,-0.0586382, 627.922, 616.093, 22.1315, 21.5168, 0.03487, 24.4461, 2.17015e-19, 0.0000000E+000
 390.51,-0.40821,-0.0586382, 628.476, 616.92, 22.2068, 21.5615, 0.03487, 24.4461, 2.17015e-19, 0.0000000E+000
 396.01,-0.40821,-0.0586382, 629.006, 617.693, 22.2853, 21.6084, 0.03487, 24.4461, 2.17015e-19, 0.0000000E+000
 401.51,-0.40821,-0.0586382, 629.482, 618.406, 22.367, 21.6575, 0.03487, 24.4461, 2.17015e-19, 0.0000000E+000
 407.01,-0.40821,-0.0586382, 629.928, 619.073, 22.4523, 21.7088, 0.03487, 24.4461, 2.17015e-19, 0.0000000E+000
 412.51,-0.40821,-0.0586382, 630.359, 619.703, 22.5411, 21.7625, 0.03487, 24.4461, 2.17015e-19, 0.0000000E+000
 418.01,-0.40821,-0.0586382, 630.754, 620.296, 22.6335, 21.8187, 0.03487, 24.4461, 2.17015e-19, 0.0000000E+000
 423.51,-0.40821,-0.0586382, 631.131, 620.855, 22.7297, 21.8773, 0.03487, 24.4461, 2.17015e-19, 0.0000000E+000
 429.01,-0.40821,-0.0586382, 631.491, 621.388, 22.8298, 21.9386, 0.03487, 24.4461, 2.17015e-19, 0.0000000E+000
 434.51,-0.40821,-0.0586382, 631.826, 621.892, 22.9338, 22.0025, 0.03487, 24.4461, 2.17015e-19, 0.0000000E+000
 440.01,-0.40821,-0.0586382, 632.152, 622.369, 23.0417, 22.0692, 0.03487, 24.4461, 2.17015e-19, 0.0000000E+000
 445.51,-0.40821,-0.0586382, 632.459, 622.818, 23.1536, 22.1387, 0.03487, 24.4461, 2.17015e-19, 0.0000000E+000
 451.01,-0.40821,-0.0586382, 632.744, 623.248, 23.2696, 22.2111, 0.03487, 24.4461, 2.17015e-19, 0.0000000E+000
 456.51,-0.40821,-0.0586382, 633.029, 623.665, 23.3896, 22.2865, 0.03487, 24.4461, 2.17015e-19, 0.0000000E+000
 462.01,-0.40821,-0.0586382, 633.288, 624.057, 23.5136, 22.3649, 0.03487, 24.4461, 2.17015e-19, 0.0000000E+000
 467.51,-0.40821,-0.0586382, 633.545, 624.433, 23.6416, 22.4464, 0.03487, 24.4461, 2.17015e-19, 0.0000000E+000
 473.01,-0.40821,-0.0586382, 633.795, 624.799, 23.7737, 22.531, 0.03487, 24.4461, 2.17015e-19, 0.0000000E+000
 478.51,-0.40821,-0.0586382, 634.025, 625.148, 23.9097, 22.6189, 0.03487, 24.4461, 2.17015e-19, 0.0000000E+000
 484.01,-0.40821,-0.0586382, 634.256, 625.486, 24.0497, 22.7099, 0.03487, 24.4461, 2.17015e-19, 0.0000000E+000
 489.51,-0.40821,-0.0586382, 634.472, 625.802, 24.1936, 22.8043, 0.03487, 24.4461, 2.17015e-19, 0.0000000E+000
 495.01,-0.40821,-0.0586382, 634.68, 626.119, 24.3414, 22.9019, 0.03487, 24.4461, 2.17015e-19, 0.0000000E+000
 500,-0.40821,-0.0586382, 634.865, 626.391, 24.4789, 22.9934, 0.03487, 24.4461, 2.17015e-19, 0.0000000E+000