File: PMMA/Calibration_Results/NIST_FSRI/All_Props/DBI_2[NIST_FSRI]_Gasification_q50_R3_Mass.csv
s,kg/m2,,C,C,C,C,m,kg/m2,kg/m2,kg/m2/s
Time,"SD","MF","TW1","TSB1","TAL1","TB1","DX1","SD1","SD_11","BR1"
 0.0000000E+000, 6.96199, 1.00007, 20.9, 20.9, 20.9, 20.9, 0.041108, 31.8163, 7.3702, 0.0000000E+000
 5.51, 6.96199, 1.00007, 227.428, 20.9, 20.9, 20.9, 0.041108, 31.8163, 7.3702, 1.55252e-06
 11.01, 6.96157, 1.00001, 301.571, 20.9009, 20.9, 20.9, 0.0411077, 31.816, 7.36984, 0.000257414
 16.51, 6.95387, 0.998904, 345.672, 20.9391, 20.9, 20.9, 0.0411018, 31.8089, 7.36282, 0.00299712
 22, 6.91984, 0.994016, 367.179, 21.2122, 20.9, 20.9, 0.0410742, 31.7764, 7.33032, 0.00898663
 27.5, 6.85416, 0.984581, 375.971, 22.0918, 20.9, 20.9, 0.0410197, 31.712, 7.26591, 0.0140962
 33, 6.76571, 0.971875, 380.024, 23.9447, 20.9, 20.9, 0.0409456, 31.6244, 7.17831, 0.0175225
 38.5, 6.66182, 0.956952, 382.242, 26.9915, 20.9, 20.9, 0.0408582, 31.5211, 7.07501, 0.0198974
 44.01, 6.54687, 0.94044, 383.608, 31.2947, 20.9, 20.9, 0.0407611, 31.4064, 6.96029, 0.0216525
 49.51, 6.42357, 0.922728, 384.509, 36.8133, 20.9, 20.9, 0.040657, 31.2834, 6.83731, 0.0230112
 55.01, 6.29366, 0.904066, 385.123, 43.4977, 20.9, 20.9, 0.0405472, 31.1538, 6.70766, 0.0241014
 60.51, 6.15833, 0.884627, 385.557, 50.8665, 20.9, 20.9, 0.0404329, 31.0187, 6.57255, 0.0250093
 66.01, 6.01842, 0.864529, 385.873, 58.7815, 20.9, 20.9, 0.0403146, 30.8789, 6.43282, 0.0257911
 71.51, 5.87446, 0.84385, 386.096, 67.1902, 20.9, 20.9, 0.0401929, 30.7351, 6.28903, 0.0264786
 77, 5.72682, 0.822642, 386.284, 75.9933, 20.9, 20.9, 0.0400683, 30.5879, 6.14182, 0.0271278
 82.5, 5.57574, 0.80094, 386.439, 85.1641, 20.9, 20.9, 0.0399406, 30.437, 5.99089, 0.0277491
 88, 5.42134, 0.77876, 386.569, 94.6588, 20.9, 20.9, 0.03981, 30.2828, 5.83664, 0.0283541
 93.5, 5.2636, 0.756102, 386.672, 104.504, 20.9, 20.9, 0.0396766, 30.1252, 5.67905, 0.0289463
 99, 5.10251, 0.732961, 386.785, 114.738, 20.9, 20.9, 0.0395404, 29.9642, 5.51811, 0.0295684
 104.5, 4.93798, 0.709327, 386.897, 125.277, 20.9, 20.9, 0.0394013, 29.7999, 5.35374, 0.0302121
 110, 4.76986, 0.685176, 387.003, 136.025, 20.9001, 20.9, 0.0392592, 29.6319, 5.18579, 0.0308776
 115.5, 4.59792, 0.660479, 387.107, 146.794, 20.9002, 20.9, 0.0391138, 29.4601, 5.01403, 0.0315761
 121, 4.42199, 0.635206, 387.228, 157.492, 20.9003, 20.9, 0.038965, 29.2844, 4.83828, 0.03233
 126.5, 4.24182, 0.609326, 387.349, 168.176, 20.9005, 20.9001, 0.0388127, 29.1044, 4.65831, 0.0331208
 132, 4.05719, 0.582804, 387.473, 178.863, 20.9008, 20.9001, 0.0386566, 28.92, 4.47389, 0.033956
 137.5, 3.86786, 0.555607, 387.59, 189.55, 20.9013, 20.9002, 0.0384966, 28.7309, 4.28478, 0.034828
 143, 3.67356, 0.527697, 387.697, 200.226, 20.9019, 20.9003, 0.0383323, 28.5368, 4.09071, 0.0357412
 148.5, 3.474, 0.49903, 387.82, 210.866, 20.9028, 20.9004, 0.0381636, 28.3375, 3.89139, 0.036727
 154, 3.26885, 0.469562, 387.944, 221.434, 20.9039, 20.9006, 0.0379902, 28.1326, 3.68651, 0.0377761
 159.51, 3.05777, 0.43924, 388.066, 231.884, 20.9054, 20.9009, 0.0378116, 27.9216, 3.47551, 0.0388897
 165.01, 2.84036, 0.40801, 388.187, 242.138, 20.9072, 20.9013, 0.0376277, 27.7043, 3.25819, 0.0400703
 170.51, 2.6163, 0.375825, 388.305, 252.107, 20.9096, 20.9018, 0.0374383, 27.4806, 3.03443, 0.0413029
 176.01, 2.38535, 0.342648, 388.423, 261.724, 20.9125, 20.9025, 0.0372431, 27.2499, 2.80378, 0.0425682
 181.51, 2.14743, 0.308473, 388.541, 270.945, 20.916, 20.9033, 0.037042, 27.0123, 2.56617, 0.0438261
 187.01, 1.90276, 0.273327, 388.661, 279.767, 20.9202, 20.9044, 0.0368351, 26.7679, 2.32178, 0.0450247
 192.51, 1.65183, 0.237281, 388.787, 288.321, 20.9252, 20.9057, 0.036623, 26.5172, 2.07111, 0.0461077
 198.01, 1.3953, 0.200432, 388.943, 296.887, 20.9311, 20.9073, 0.036406, 26.2609, 1.81481, 0.0470655
 203.51, 1.13381, 0.162868, 389.178, 305.812, 20.9379, 20.9093, 0.0361849, 25.9996, 1.55352, 0.0479245
 209.01, 0.867853, 0.124665, 389.561, 315.569, 20.9457, 20.9116, 0.0359599, 25.7339, 1.28776, 0.0487059
 214.51, 0.597779, 0.0858693, 390.239, 326.826, 20.9547, 20.9144, 0.0357315, 25.464, 1.01786, 0.049434
 220.01, 0.32388, 0.0465244, 391.602, 340.614, 20.9648, 20.9177, 0.0354998, 25.1902, 0.744113, 0.0500863
 225.51, 0.0470603, 0.00676009, 394.875, 359.131, 20.9763, 20.9215, 0.0352656, 24.9135, 0.46738, 0.0504574
 231.01,-0.228578,-0.0328347, 406.26, 389.808, 20.9891, 20.9258, 0.0350321, 24.6376, 0.191462, 0.0493495
 236.51,-0.40821,-0.0586382, 542.487, 486.705, 21.0033, 20.9309, 0.03487, 24.4461, 1.27698e-12, 1.96084e-15
 242.01,-0.40821,-0.0586382, 582.99, 548.347, 21.0191, 20.9366, 0.03487, 24.4461, 1.24295e-12, 9.90711e-15
 247.51,-0.40821,-0.0586382, 595.677, 567.697, 21.0364, 20.9431, 0.03487, 24.4461, 1.17391e-12, 1.46965e-14
 253.01,-0.40821,-0.0586382, 602.759, 578.413, 21.0555, 20.9505, 0.03487, 24.4461, 1.08567e-12, 1.70504e-14
 258.51,-0.40821,-0.0586382, 607.492, 585.54, 21.0762, 20.9587, 0.03487, 24.4461, 9.89276e-13, 1.77816e-14
 264.01,-0.40821,-0.0586382, 610.937, 590.715, 21.0988, 20.9678, 0.03487, 24.4461, 8.91995e-13, 1.74638e-14
 269.51,-0.40821,-0.0586382, 613.626, 594.748, 21.1232, 20.978, 0.03487, 24.4461, 7.98293e-13, 1.65386e-14
 275.01,-0.40821,-0.0586382, 615.799, 598.019, 21.1495, 20.9892, 0.03487, 24.4461, 7.10691e-13, 1.52842e-14
 280.51,-0.40821,-0.0586382, 617.636, 600.747, 21.1778, 21.0016, 0.03487, 24.4461, 6.30454e-13, 1.38862e-14
 286.01,-0.40821,-0.0586382, 619.179, 603.07, 21.2081, 21.0151, 0.03487, 24.4461, 5.58012e-13, 1.24643e-14
 291.51,-0.40821,-0.0586382, 620.528, 605.083, 21.2406, 21.0299, 0.03487, 24.4461, 4.93276e-13, 1.10921e-14
 297.01,-0.40821,-0.0586382, 621.712, 606.84, 21.2752, 21.046, 0.03487, 24.4461, 4.35861e-13, 9.80905e-15
 302.51,-0.40821,-0.0586382, 622.758, 608.401, 21.3122, 21.0635, 0.03487, 24.4461, 3.85196e-13, 8.63849e-15
 308.01,-0.40821,-0.0586382, 623.705, 609.807, 21.3515, 21.0823, 0.03487, 24.4461, 3.40638e-13, 7.58792e-15
 313.51,-0.40821,-0.0586382, 624.55, 611.078, 21.3935, 21.1027, 0.03487, 24.4461, 3.01536e-13, 6.6539e-15
 319.01,-0.40821,-0.0586382, 625.33, 612.236, 21.4381, 21.1247, 0.03487, 24.4461, 2.67262e-13, 5.8301e-15
 324.51,-0.40821,-0.0586382, 626.044, 613.297, 21.4857, 21.1483, 0.03487, 24.4461, 2.37237e-13, 5.10722e-15
 330.01,-0.40821,-0.0586382, 626.7, 614.273, 21.5365, 21.1737, 0.03487, 24.4461, 2.1093e-13, 4.47526e-15
 335.51,-0.40821,-0.0586382, 627.31, 615.182, 21.5905, 21.2009, 0.03487, 24.4461, 1.87871e-13, 3.92464e-15
 341.01,-0.40821,-0.0586382, 627.869, 616.015, 21.648, 21.2301, 0.03487, 24.4461, 1.6764e-13, 3.44445e-15
 346.51,-0.40821,-0.0586382, 628.403, 616.796, 21.7093, 21.2614, 0.03487, 24.4461, 1.49874e-13, 3.02702e-15
 352.01,-0.40821,-0.0586382, 628.894, 617.53, 21.7743, 21.2948, 0.03487, 24.4461, 1.3425e-13, 2.66422e-15
 357.51,-0.40821,-0.0586382, 629.353, 618.217, 21.8433, 21.3305, 0.03487, 24.4461, 1.20489e-13, 2.3484e-15
 363.01,-0.40821,-0.0586382, 629.788, 618.863, 21.9165, 21.3687, 0.03487, 24.4461, 1.08349e-13, 2.07349e-15
 368.51,-0.40821,-0.0586382, 630.202, 619.474, 21.9938, 21.4094, 0.03487, 24.4461, 9.76217e-14, 1.83397e-15
 374.01,-0.40821,-0.0586382, 630.587, 620.052, 22.0754, 21.4527, 0.03487, 24.4461, 8.81253e-14, 1.62502e-15
 379.51,-0.40821,-0.0586382, 630.961, 620.598, 22.1614, 21.4987, 0.03487, 24.4461, 7.97032e-14, 1.44245e-15
 385.01,-0.40821,-0.0586382, 631.305, 621.116, 22.2518, 21.5477, 0.03487, 24.4461, 7.22206e-14, 1.28273e-15
 390.51,-0.40821,-0.0586382, 631.643, 621.61, 22.3466, 21.5995, 0.03487, 24.4461, 6.556e-14, 1.14281e-15
 396.01,-0.40821,-0.0586382, 631.955, 622.081, 22.4459, 21.6545, 0.03487, 24.4461, 5.96205e-14, 1.02003e-15
 401.51,-0.40821,-0.0586382, 632.266, 622.536, 22.5497, 21.7125, 0.03487, 24.4461, 5.43142e-14, 9.12225e-16
 407.01,-0.40821,-0.0586382, 632.547, 622.961, 22.6579, 21.7738, 0.03487, 24.4461, 4.95654e-14, 8.171e-16
 412.51,-0.40821,-0.0586382, 632.827, 623.37, 22.7706, 21.8384, 0.03487, 24.4461, 4.53076e-14, 7.33253e-16
 418.01,-0.40821,-0.0586382, 633.096, 623.763, 22.8876, 21.9064, 0.03487, 24.4461, 4.14831e-14, 6.5918e-16
 423.51,-0.40821,-0.0586382, 633.347, 624.144, 23.0091, 21.9777, 0.03487, 24.4461, 3.80423e-14, 5.93662e-16
 429.01,-0.40821,-0.0586382, 633.592, 624.502, 23.1349, 22.0526, 0.03487, 24.4461, 3.49408e-14, 5.35478e-16
 434.51,-0.40821,-0.0586382, 633.827, 624.854, 23.2649, 22.1309, 0.03487, 24.4461, 3.21408e-14, 4.83887e-16
 440.01,-0.40821,-0.0586382, 634.054, 625.191, 23.3992, 22.2128, 0.03487, 24.4461, 2.96086e-14, 4.37965e-16
 445.51,-0.40821,-0.0586382, 634.279, 625.519, 23.5378, 22.2983, 0.03487, 24.4461, 2.73149e-14, 3.97064e-16
 451.01,-0.40821,-0.0586382, 634.488, 625.825, 23.6804, 22.3874, 0.03487, 24.4461, 2.52341e-14, 3.60466e-16
 456.51,-0.40821,-0.0586382, 634.69, 626.133, 23.8271, 22.4801, 0.03487, 24.4461, 2.33432e-14, 3.2783e-16
 462.01,-0.40821,-0.0586382, 634.889, 626.425, 23.9778, 22.5764, 0.03487, 24.4461, 2.16225e-14, 2.98558e-16
 467.51,-0.40821,-0.0586382, 635.083, 626.708, 24.1324, 22.6763, 0.03487, 24.4461, 2.00543e-14, 2.72303e-16
 473.01,-0.40821,-0.0586382, 635.257, 626.976, 24.2909, 22.7799, 0.03487, 24.4461, 1.8623e-14, 2.4868e-16
 478.51,-0.40821,-0.0586382, 635.443, 627.247, 24.4532, 22.8872, 0.03487, 24.4461, 1.73148e-14, 2.27479e-16
 484.01,-0.40821,-0.0586382, 635.612, 627.495, 24.6192, 22.998, 0.03487, 24.4461, 1.61175e-14, 2.08304e-16
 489.51,-0.40821,-0.0586382, 635.784, 627.747, 24.7889, 23.1125, 0.03487, 24.4461, 1.50202e-14, 1.91044e-16
 495.01,-0.40821,-0.0586382, 635.939, 627.985, 24.9622, 23.2306, 0.03487, 24.4461, 1.40133e-14, 1.75421e-16
 500,-0.40821,-0.0586382, 636.085, 628.198, 25.1226, 23.3409, 0.03487, 24.4461, 1.31699e-14, 1.6253e-16