File: PMMA/Calibration_Results/NIST_FSRI/All_Props/DBI_3[NIST_FSRI]_Gasification_q50_R3_Mass.csv
s,kg/m2,,C,C,C,C,m,kg/m2,kg/m2,kg/m2/s
Time,"SD","MF","TW1","TSB1","TAL1","TB1","DX1","SD1","SD_11","BR1"
 0.0000000E+000, 6.96199, 1.00007, 20.9, 20.9, 20.9, 20.9, 0.041108, 31.8163, 7.3702, 0.0000000E+000
 5.51, 6.96199, 1.00007, 227.429, 20.9, 20.9, 20.9, 0.041108, 31.8163, 7.3702, 1.00683e-07
 11.01, 6.96197, 1.00007, 301.836, 20.9009, 20.9, 20.9, 0.041108, 31.8163, 7.37018, 1.22429e-05
 16.51, 6.9616, 1.00002, 349.774, 20.9391, 20.9, 20.9, 0.0411077, 31.816, 7.36985, 0.000145887
 22, 6.95946, 0.999707, 383.455, 21.2115, 20.9, 20.9, 0.041106, 31.814, 7.36784, 0.000676504
 27.5, 6.9525, 0.998707, 407.395, 22.0865, 20.9, 20.9, 0.0411004, 31.8073, 7.36118, 0.00185885
 33, 6.93715, 0.996502, 423.888, 23.9302, 20.9, 20.9, 0.0410878, 31.7924, 7.34627, 0.00362697
 38.5, 6.91118, 0.992772, 434.924, 26.9823, 20.9, 20.9, 0.0410662, 31.7669, 7.32081, 0.00563445
 44.01, 6.87431, 0.987475, 442.283, 31.3495, 20.9, 20.9, 0.0410353, 31.7305, 7.28434, 0.00756275
 49.51, 6.82752, 0.980754, 447.271, 37.0447, 20.9, 20.9, 0.0409961, 31.6841, 7.23796, 0.00925606
 55.01, 6.77218, 0.972805, 450.777, 44.0386, 20.9, 20.9, 0.0409495, 31.6291, 7.18296, 0.0106966
 60.51, 6.7096, 0.963815, 453.336, 51.8328, 20.9, 20.9, 0.0408968, 31.5668, 7.12067, 0.0119158
 66.01, 6.64087, 0.953942, 455.272, 60.2723, 20.9, 20.9, 0.0408388, 31.4983, 7.05219, 0.0129557
 71.51, 6.56685, 0.943309, 456.794, 69.2637, 20.9, 20.9, 0.0407764, 31.4245, 6.97839, 0.0138589
 77, 6.48819, 0.93201, 458.028, 78.6559, 20.9, 20.9, 0.0407101, 31.3462, 6.90006, 0.0146569
 82.5, 6.40538, 0.920115, 459.055, 88.3823, 20.9, 20.9, 0.0406402, 31.2636, 6.81743, 0.0153765
 88, 6.31879, 0.907676, 459.934, 98.3653, 20.9, 20.9, 0.040567, 31.1771, 6.73101, 0.0160386
 93.5, 6.22868, 0.894732, 460.71, 108.623, 20.9, 20.9, 0.0404909, 31.0872, 6.64106, 0.0166614
 99, 6.13524, 0.88131, 461.407, 119.1, 20.9, 20.9, 0.0404119, 30.9939, 6.54776, 0.0172564
 104.5, 6.03858, 0.867425, 462.042, 129.677, 20.9, 20.9, 0.0403302, 30.8974, 6.45125, 0.0178318
 110, 5.93879, 0.853091, 462.63, 140.219, 20.9001, 20.9, 0.0402459, 30.7977, 6.3516, 0.0183972
 115.5, 5.8359, 0.838311, 463.186, 150.523, 20.9002, 20.9, 0.0401589, 30.695, 6.24885, 0.0189592
 121, 5.72992, 0.823087, 463.716, 160.601, 20.9003, 20.9, 0.0400693, 30.5891, 6.14302, 0.0195227
 126.5, 5.62085, 0.807419, 464.219, 170.497, 20.9005, 20.9001, 0.0399771, 30.4802, 6.03408, 0.020087
 132, 5.50866, 0.791304, 464.702, 180.23, 20.9008, 20.9001, 0.0398823, 30.3682, 5.92204, 0.0206556
 137.5, 5.39335, 0.77474, 465.162, 189.81, 20.9013, 20.9002, 0.0397848, 30.253, 5.80687, 0.0212259
 143, 5.2749, 0.757724, 465.599, 199.246, 20.9019, 20.9003, 0.0396847, 30.1347, 5.68856, 0.0217999
 148.5, 5.15326, 0.740251, 466.01, 208.543, 20.9028, 20.9004, 0.0395819, 30.0132, 5.56707, 0.0223756
 154, 5.02842, 0.722318, 466.414, 217.707, 20.904, 20.9006, 0.0394763, 29.8885, 5.44237, 0.0229624
 159.51, 4.90033, 0.703919, 466.804, 226.747, 20.9055, 20.9009, 0.0393679, 29.7604, 5.31432, 0.023559
 165.01, 4.76896, 0.685048, 467.176, 235.655, 20.9075, 20.9013, 0.0392568, 29.6291, 5.18298, 0.024162
 170.51, 4.63425, 0.665698, 467.531, 244.421, 20.9099, 20.9019, 0.0391429, 29.4945, 5.04841, 0.0247734
 176.01, 4.49613, 0.645857, 467.867, 253.052, 20.9129, 20.9026, 0.0390261, 29.3566, 4.91044, 0.0253949
 181.51, 4.35455, 0.625518, 468.199, 261.541, 20.9165, 20.9034, 0.0389064, 29.2151, 4.76901, 0.0260324
 187.01, 4.20942, 0.604671, 468.523, 269.879, 20.9209, 20.9045, 0.0387837, 29.0702, 4.62404, 0.026686
 192.51, 4.06067, 0.583304, 468.83, 278.041, 20.926, 20.9059, 0.0386579, 28.9216, 4.47545, 0.0273493
 198.01, 3.90823, 0.561407, 469.117, 285.999, 20.9321, 20.9076, 0.0385291, 28.7693, 4.32317, 0.0280214
 203.51, 3.75204, 0.53897, 469.407, 293.769, 20.9391, 20.9096, 0.038397, 28.6133, 4.16714, 0.0287109
 209.01, 3.59205, 0.515989, 469.683, 301.337, 20.9472, 20.912, 0.0382617, 28.4534, 4.00732, 0.0294033
 214.51, 3.42826, 0.49246, 469.95, 308.677, 20.9564, 20.9149, 0.0381232, 28.2898, 3.8437, 0.0300984
 220.01, 3.26067, 0.468386, 470.191, 315.802, 20.9668, 20.9182, 0.0379815, 28.1224, 3.67627, 0.0307792
 225.51, 3.08933, 0.443774, 470.438, 322.719, 20.9785, 20.9221, 0.0378366, 27.9512, 3.5051, 0.0314563
 231.01, 2.91435, 0.418639, 470.673, 329.428, 20.9916, 20.9266, 0.0376887, 27.7764, 3.33027, 0.0321106
 236.51, 2.73587, 0.393, 470.903, 335.962, 21.0062, 20.9318, 0.0375377, 27.5981, 3.15194, 0.0327359
 242.01, 2.55405, 0.366882, 471.118, 342.362, 21.0222, 20.9377, 0.037384, 27.4164, 2.97026, 0.0333207
 247.51, 2.3691, 0.340315, 471.343, 348.676, 21.0398, 20.9444, 0.0372275, 27.2316, 2.78544, 0.0338723
 253.01, 2.18125, 0.313331, 471.575, 354.966, 21.059, 20.9519, 0.0370687, 27.0438, 2.59771, 0.0343821
 258.51, 1.99072, 0.285961, 471.829, 361.315, 21.08, 20.9602, 0.0369075, 26.8534, 2.4073, 0.0348542
 264.01, 1.79772, 0.258238, 472.11, 367.81, 21.1026, 20.9696, 0.0367442, 26.6605, 2.2144, 0.0352857
 269.51, 1.60246, 0.230188, 472.435, 374.548, 21.1271, 20.9799, 0.036579, 26.4654, 2.01923, 0.0356809
 275.01, 1.4051, 0.201838, 472.838, 381.647, 21.1535, 20.9913, 0.0364121, 26.2681, 1.82196, 0.0360477
 280.51, 1.20581, 0.173212, 473.353, 389.241, 21.1817, 21.0037, 0.0362435, 26.0689, 1.62276, 0.0363831
 286.01, 1.00479, 0.144336, 474.038, 397.496, 21.2119, 21.0174, 0.0360734, 25.8679, 1.42181, 0.0366825
 291.51, 0.802271, 0.115244, 474.988, 406.622, 21.244, 21.0323, 0.035902, 25.6655, 1.21935, 0.0369299
 297.01, 0.598609, 0.0859885, 476.367, 416.919, 21.2782, 21.0484, 0.0357297, 25.4618, 1.01572, 0.0370957
 302.51, 0.39444, 0.0566602, 478.483, 428.832, 21.3145, 21.0659, 0.0355569, 25.2577, 0.811557, 0.0371121
 308.01, 0.190986, 0.0274346, 481.955, 443.098, 21.3528, 21.0847, 0.0353846, 25.0542, 0.608032, 0.0368275
 313.51,-0.00916265,-0.00131619, 488.199, 461.137, 21.3933, 21.1049, 0.035215, 24.8538, 0.407652, 0.035877
 319.01,-0.199734,-0.0286912, 501.136, 486.586, 21.4359, 21.1266, 0.0350532, 24.6625, 0.216421, 0.033176
 324.51,-0.35906,-0.0515779, 534.982, 531.911, 21.4806, 21.1498, 0.0349163, 24.5008, 0.0546713, 0.0233132
 330.01,-0.40821,-0.0586382, 594.818, 566.392, 21.5276, 21.1746, 0.03487, 24.4461, 2.26723e-19, 0.0000000E+000
 335.51,-0.40821,-0.0586382, 606.034, 583.351, 21.5768, 21.2009, 0.03487, 24.4461, 2.26723e-19, 0.0000000E+000
 341.01,-0.40821,-0.0586382, 611.425, 591.453, 21.6282, 21.2289, 0.03487, 24.4461, 2.26723e-19, 0.0000000E+000
 346.51,-0.40821,-0.0586382, 614.914, 596.676, 21.6818, 21.2585, 0.03487, 24.4461, 2.26723e-19, 0.0000000E+000
 352.01,-0.40821,-0.0586382, 617.451, 600.477, 21.7378, 21.2898, 0.03487, 24.4461, 2.26723e-19, 0.0000000E+000
 357.51,-0.40821,-0.0586382, 619.434, 603.442, 21.7961, 21.3229, 0.03487, 24.4461, 2.26723e-19, 0.0000000E+000
 363.01,-0.40821,-0.0586382, 621.041, 605.84, 21.8566, 21.3577, 0.03487, 24.4461, 2.26723e-19, 0.0000000E+000
 368.51,-0.40821,-0.0586382, 622.385, 607.845, 21.9195, 21.3943, 0.03487, 24.4461, 2.26723e-19, 0.0000000E+000
 374.01,-0.40821,-0.0586382, 623.542, 609.566, 21.9848, 21.4327, 0.03487, 24.4461, 2.26723e-19, 0.0000000E+000
 379.51,-0.40821,-0.0586382, 624.546, 611.072, 22.0525, 21.473, 0.03487, 24.4461, 2.26723e-19, 0.0000000E+000
 385.01,-0.40821,-0.0586382, 625.444, 612.402, 22.1226, 21.5152, 0.03487, 24.4461, 2.26723e-19, 0.0000000E+000
 390.51,-0.40821,-0.0586382, 626.248, 613.594, 22.1953, 21.5594, 0.03487, 24.4461, 2.26723e-19, 0.0000000E+000
 396.01,-0.40821,-0.0586382, 626.975, 614.675, 22.2705, 21.6054, 0.03487, 24.4461, 2.26723e-19, 0.0000000E+000
 401.51,-0.40821,-0.0586382, 627.629, 615.648, 22.3483, 21.6535, 0.03487, 24.4461, 2.26723e-19, 0.0000000E+000
 407.01,-0.40821,-0.0586382, 628.231, 616.544, 22.429, 21.7036, 0.03487, 24.4461, 2.26723e-19, 0.0000000E+000
 412.51,-0.40821,-0.0586382, 628.78, 617.363, 22.5125, 21.7558, 0.03487, 24.4461, 2.26723e-19, 0.0000000E+000
 418.01,-0.40821,-0.0586382, 629.291, 618.126, 22.599, 21.8102, 0.03487, 24.4461, 2.26723e-19, 0.0000000E+000
 423.51,-0.40821,-0.0586382, 629.775, 618.839, 22.6886, 21.8667, 0.03487, 24.4461, 2.26723e-19, 0.0000000E+000
 429.01,-0.40821,-0.0586382, 630.222, 619.503, 22.7814, 21.9255, 0.03487, 24.4461, 2.26723e-19, 0.0000000E+000
 434.51,-0.40821,-0.0586382, 630.637, 620.125, 22.8776, 21.9866, 0.03487, 24.4461, 2.26723e-19, 0.0000000E+000
 440.01,-0.40821,-0.0586382, 631.036, 620.708, 22.9772, 22.0501, 0.03487, 24.4461, 2.26723e-19, 0.0000000E+000
 445.51,-0.40821,-0.0586382, 631.405, 621.262, 23.0803, 22.116, 0.03487, 24.4461, 2.26723e-19, 0.0000000E+000
 451.01,-0.40821,-0.0586382, 631.76, 621.781, 23.1871, 22.1845, 0.03487, 24.4461, 2.26723e-19, 0.0000000E+000
 456.51,-0.40821,-0.0586382, 632.086, 622.273, 23.2975, 22.2556, 0.03487, 24.4461, 2.26723e-19, 0.0000000E+000
 462.01,-0.40821,-0.0586382, 632.403, 622.735, 23.4117, 22.3293, 0.03487, 24.4461, 2.26723e-19, 0.0000000E+000
 467.51,-0.40821,-0.0586382, 632.698, 623.181, 23.5297, 22.4057, 0.03487, 24.4461, 2.26723e-19, 0.0000000E+000
 473.01,-0.40821,-0.0586382, 632.989, 623.607, 23.6515, 22.485, 0.03487, 24.4461, 2.26723e-19, 0.0000000E+000
 478.51,-0.40821,-0.0586382, 633.254, 624.008, 23.7771, 22.5671, 0.03487, 24.4461, 2.26723e-19, 0.0000000E+000
 484.01,-0.40821,-0.0586382, 633.519, 624.395, 23.9066, 22.6521, 0.03487, 24.4461, 2.26723e-19, 0.0000000E+000
 489.51,-0.40821,-0.0586382, 633.775, 624.769, 24.0399, 22.74, 0.03487, 24.4461, 2.26723e-19, 0.0000000E+000
 495.01,-0.40821,-0.0586382, 634.008, 625.123, 24.177, 22.831, 0.03487, 24.4461, 2.26723e-19, 0.0000000E+000
 500,-0.40821,-0.0586382, 634.222, 625.437, 24.3049, 22.9163, 0.03487, 24.4461, 2.26723e-19, 0.0000000E+000