File: PMMA/Calibration_Results/NIST_FSRI/All_Props/DBI_1[NIST_FSRI]_Gasification_q50_R3_Mass.csv
s,kg/m2,,C,C,C,C,m,kg/m2,kg/m2,kg/m2/s
Time,"SD","MF","TW1","TSB1","TAL1","TB1","DX1","SD1","SD_11","BR1"
 0.0000000E+000, 6.96199, 1.00007, 20.9, 20.9, 20.9, 20.9, 0.041108, 31.8163, 7.3702, 0.0000000E+000
 5.51, 6.96199, 1.00007, 227.429, 20.9, 20.9, 20.9, 0.041108, 31.8163, 7.3702, 2.92758e-07
 11.01, 6.96192, 1.00006, 301.804, 20.9009, 20.9, 20.9, 0.041108, 31.8163, 7.37014, 4.03407e-05
 16.51, 6.96069, 0.999883, 349.266, 20.9391, 20.9, 20.9, 0.041107, 31.8151, 7.36902, 0.000501211
 22, 6.9535, 0.998851, 380.8, 21.2116, 20.9, 20.9, 0.0411013, 31.8084, 7.36228, 0.00221048
 27.5, 6.93261, 0.995851, 400.255, 22.0875, 20.9, 20.9, 0.0410843, 31.7883, 7.34215, 0.00524046
 33, 6.89383, 0.990279, 411.322, 23.9341, 20.9, 20.9, 0.0410521, 31.7503, 7.30418, 0.00850518
 38.5, 6.83848, 0.982328, 417.64, 26.9898, 20.9, 20.9, 0.0410059, 31.6956, 7.24951, 0.011258
 44.01, 6.76982, 0.972466, 421.489, 31.3513, 20.9, 20.9, 0.0409481, 31.6274, 7.18126, 0.0134185
 49.51, 6.69078, 0.961111, 423.999, 37.0138, 20.9, 20.9, 0.0408815, 31.5487, 7.10262, 0.0151069
 55.01, 6.60351, 0.948575, 425.747, 43.9314, 20.9, 20.9, 0.0408079, 31.4618, 7.01567, 0.0164586
 60.51, 6.50957, 0.935081, 427.021, 51.5999, 20.9, 20.9, 0.0407287, 31.3681, 6.922, 0.0175668
 66.01, 6.41006, 0.920787, 427.999, 59.8656, 20.9, 20.9, 0.0406446, 31.2688, 6.82272, 0.0185075
 71.51, 6.30578, 0.905808, 428.769, 68.6459, 20.9, 20.9, 0.0405565, 31.1648, 6.71863, 0.0193219
 77, 6.19729, 0.890224, 429.4, 77.8067, 20.9, 20.9, 0.040465, 31.0566, 6.61052, 0.020049
 82.5, 6.08499, 0.874091, 429.937, 87.2976, 20.9, 20.9, 0.0403701, 30.9445, 6.49838, 0.0207189
 88, 5.96913, 0.857449, 430.407, 97.0553, 20.9, 20.9, 0.0402722, 30.8288, 6.38268, 0.021349
 93.5, 5.84989, 0.840321, 430.828, 107.104, 20.9, 20.9, 0.0401714, 30.7097, 6.26359, 0.021954
 99, 5.72738, 0.822722, 431.213, 117.425, 20.9, 20.9, 0.0400678, 30.5873, 6.14123, 0.0225462
 104.5, 5.60162, 0.804656, 431.563, 127.916, 20.9, 20.9, 0.0399615, 30.4617, 6.01561, 0.0231276
 110, 5.4726, 0.786124, 431.911, 138.461, 20.9001, 20.9, 0.0398524, 30.3329, 5.88674, 0.0237246
 115.5, 5.3403, 0.767119, 432.246, 148.862, 20.9002, 20.9, 0.0397406, 30.2007, 5.75459, 0.0243301
 121, 5.20463, 0.747631, 432.573, 159.094, 20.9003, 20.9, 0.0396259, 30.0652, 5.61908, 0.0249503
 126.5, 5.06553, 0.727649, 432.886, 169.209, 20.9005, 20.9001, 0.0395083, 29.9263, 5.48014, 0.0255817
 132, 4.9229, 0.707161, 433.18, 179.226, 20.9008, 20.9001, 0.0393877, 29.7838, 5.33767, 0.0262229
 137.5, 4.77666, 0.686154, 433.478, 189.155, 20.9013, 20.9002, 0.0392641, 29.6377, 5.19159, 0.0268882
 143, 4.62673, 0.664616, 433.768, 199.002, 20.9019, 20.9003, 0.0391373, 29.488, 5.04183, 0.0275713
 148.5, 4.473, 0.642535, 434.046, 208.765, 20.9028, 20.9004, 0.0390074, 29.3344, 4.88828, 0.0282704
 154, 4.31538, 0.619893, 434.315, 218.444, 20.904, 20.9006, 0.0388741, 29.177, 4.73084, 0.0289899
 159.51, 4.15373, 0.596672, 434.563, 228.039, 20.9055, 20.9009, 0.0387373, 29.0154, 4.56923, 0.0297243
 165.01, 3.98791, 0.572852, 434.821, 237.53, 20.9074, 20.9013, 0.038597, 28.8496, 4.40344, 0.0304991
 170.51, 3.81777, 0.548412, 435.069, 246.893, 20.9098, 20.9019, 0.0384532, 28.6796, 4.2335, 0.0312983
 176.01, 3.64315, 0.523329, 435.314, 256.117, 20.9128, 20.9025, 0.0383055, 28.5052, 4.05908, 0.0321314
 181.51, 3.46389, 0.497578, 435.548, 265.173, 20.9164, 20.9034, 0.038154, 28.3261, 3.88002, 0.0329904
 187.01, 3.27981, 0.471135, 435.776, 274.032, 20.9207, 20.9045, 0.0379984, 28.1423, 3.69615, 0.0338769
 192.51, 3.09078, 0.443982, 435.987, 282.62, 20.9258, 20.9059, 0.0378385, 27.9535, 3.50734, 0.0347789
 198.01, 2.89672, 0.416106, 436.2, 290.943, 20.9317, 20.9075, 0.0376745, 27.7596, 3.3135, 0.0356939
 203.51, 2.69765, 0.38751, 436.409, 299.001, 20.9387, 20.9095, 0.0375062, 27.5608, 3.11465, 0.0366032
 209.01, 2.49367, 0.358208, 436.611, 306.779, 20.9467, 20.9119, 0.0373337, 27.357, 2.91088, 0.0374866
 214.51, 2.28497, 0.328229, 436.81, 314.329, 20.9558, 20.9147, 0.0371572, 27.1485, 2.70238, 0.0383236
 220.01, 2.07185, 0.297615, 437.009, 321.736, 20.9661, 20.918, 0.036977, 26.9356, 2.48944, 0.0390998
 225.51, 1.85464, 0.266414, 437.221, 329.102, 20.9777, 20.9219, 0.0367933, 26.7185, 2.27241, 0.0398105
 231.01, 1.63373, 0.23468, 437.464, 336.574, 20.9907, 20.9264, 0.0366065, 26.4978, 2.05165, 0.0404571
 236.51, 1.40943, 0.202461, 437.763, 344.344, 21.0051, 20.9315, 0.0364168, 26.2736, 1.8275, 0.0410458
 242.01, 1.18205, 0.169798, 438.158, 352.629, 21.021, 20.9373, 0.0362244, 26.0464, 1.60024, 0.0415869
 247.51, 0.951824, 0.136727, 438.713, 361.698, 21.0385, 20.9439, 0.0360297, 25.8163, 1.37013, 0.0420797
 253.01, 0.718992, 0.103281, 439.568, 371.919, 21.0577, 20.9514, 0.0358327, 25.5835, 1.13741, 0.0425329
 258.51, 0.483911, 0.0695124, 440.958, 383.832, 21.0785, 20.9597, 0.0356338, 25.3485, 0.902417, 0.0428988
 264.01, 0.247331, 0.0355285, 443.444, 398.355, 21.1011, 20.9689, 0.0354336, 25.112, 0.665877, 0.0430657
 269.51, 0.0111769, 0.00160553, 448.562, 417.388, 21.1255, 20.9792, 0.0352336, 24.8758, 0.429631, 0.0426968
 275.01,-0.218498,-0.0313866, 461.951, 446.669, 21.1518, 20.9905, 0.0350388, 24.6455, 0.199398, 0.0404302
 280.51,-0.401117,-0.0576194, 529.507, 528.961, 21.1801, 21.0029, 0.0348795, 24.4573, 0.0112115, 0.0184054
 286.01,-0.40821,-0.0586382, 590.375, 559.632, 21.2103, 21.0165, 0.03487, 24.4461, 6.45212e-15, 8.65838e-15
 291.51,-0.40821,-0.0586382, 601.562, 576.607, 21.2425, 21.0313, 0.03487, 24.4461, 1.98956e-18, 3.09851e-18
 297.01,-0.40821,-0.0586382, 607.581, 585.676, 21.2768, 21.0475, 0.03487, 24.4461, 2.34335e-19, 0.0000000E+000
 302.51,-0.40821,-0.0586382, 611.543, 591.624, 21.3131, 21.0649, 0.03487, 24.4461, 2.34335e-19, 0.0000000E+000
 308.01,-0.40821,-0.0586382, 614.452, 596, 21.3516, 21.0837, 0.03487, 24.4461, 2.34335e-19, 0.0000000E+000
 313.51,-0.40821,-0.0586382, 616.742, 599.419, 21.3923, 21.1039, 0.03487, 24.4461, 2.34335e-19, 0.0000000E+000
 319.01,-0.40821,-0.0586382, 618.602, 602.204, 21.4352, 21.1257, 0.03487, 24.4461, 2.34335e-19, 0.0000000E+000
 324.51,-0.40821,-0.0586382, 620.169, 604.536, 21.4803, 21.1489, 0.03487, 24.4461, 2.34335e-19, 0.0000000E+000
 330.01,-0.40821,-0.0586382, 621.493, 606.513, 21.5278, 21.1737, 0.03487, 24.4461, 2.34335e-19, 0.0000000E+000
 335.51,-0.40821,-0.0586382, 622.645, 608.237, 21.5775, 21.2002, 0.03487, 24.4461, 2.34335e-19, 0.0000000E+000
 341.01,-0.40821,-0.0586382, 623.676, 609.761, 21.6296, 21.2283, 0.03487, 24.4461, 2.34335e-19, 0.0000000E+000
 346.51,-0.40821,-0.0586382, 624.581, 611.123, 21.6842, 21.2581, 0.03487, 24.4461, 2.34335e-19, 0.0000000E+000
 352.01,-0.40821,-0.0586382, 625.407, 612.349, 21.7414, 21.2896, 0.03487, 24.4461, 2.34335e-19, 0.0000000E+000
 357.51,-0.40821,-0.0586382, 626.157, 613.462, 21.8012, 21.323, 0.03487, 24.4461, 2.34335e-19, 0.0000000E+000
 363.01,-0.40821,-0.0586382, 626.84, 614.478, 21.8638, 21.3583, 0.03487, 24.4461, 2.34335e-19, 0.0000000E+000
 368.51,-0.40821,-0.0586382, 627.468, 615.412, 21.9294, 21.3955, 0.03487, 24.4461, 2.34335e-19, 0.0000000E+000
 374.01,-0.40821,-0.0586382, 628.045, 616.272, 21.998, 21.4347, 0.03487, 24.4461, 2.34335e-19, 0.0000000E+000
 379.51,-0.40821,-0.0586382, 628.58, 617.072, 22.0699, 21.4759, 0.03487, 24.4461, 2.34335e-19, 0.0000000E+000
 385.01,-0.40821,-0.0586382, 629.085, 617.809, 22.1452, 21.5194, 0.03487, 24.4461, 2.34335e-19, 0.0000000E+000
 390.51,-0.40821,-0.0586382, 629.55, 618.505, 22.224, 21.565, 0.03487, 24.4461, 2.34335e-19, 0.0000000E+000
 396.01,-0.40821,-0.0586382, 629.987, 619.159, 22.3064, 21.613, 0.03487, 24.4461, 2.34335e-19, 0.0000000E+000
 401.51,-0.40821,-0.0586382, 630.406, 619.772, 22.3927, 21.6635, 0.03487, 24.4461, 2.34335e-19, 0.0000000E+000
 407.01,-0.40821,-0.0586382, 630.794, 620.354, 22.4828, 21.7164, 0.03487, 24.4461, 2.34335e-19, 0.0000000E+000
 412.51,-0.40821,-0.0586382, 631.158, 620.901, 22.5768, 21.772, 0.03487, 24.4461, 2.34335e-19, 0.0000000E+000
 418.01,-0.40821,-0.0586382, 631.514, 621.422, 22.6749, 21.8302, 0.03487, 24.4461, 2.34335e-19, 0.0000000E+000
 423.51,-0.40821,-0.0586382, 631.845, 621.92, 22.777, 21.8912, 0.03487, 24.4461, 2.34335e-19, 0.0000000E+000
 429.01,-0.40821,-0.0586382, 632.166, 622.39, 22.8833, 21.955, 0.03487, 24.4461, 2.34335e-19, 0.0000000E+000
 434.51,-0.40821,-0.0586382, 632.469, 622.832, 22.9937, 22.0218, 0.03487, 24.4461, 2.34335e-19, 0.0000000E+000
 440.01,-0.40821,-0.0586382, 632.75, 623.257, 23.1083, 22.0917, 0.03487, 24.4461, 2.34335e-19, 0.0000000E+000
 445.51,-0.40821,-0.0586382, 633.032, 623.669, 23.227, 22.1645, 0.03487, 24.4461, 2.34335e-19, 0.0000000E+000
 451.01,-0.40821,-0.0586382, 633.287, 624.057, 23.3499, 22.2406, 0.03487, 24.4461, 2.34335e-19, 0.0000000E+000
 456.51,-0.40821,-0.0586382, 633.542, 624.429, 23.4769, 22.3198, 0.03487, 24.4461, 2.34335e-19, 0.0000000E+000
 462.01,-0.40821,-0.0586382, 633.79, 624.792, 23.608, 22.4023, 0.03487, 24.4461, 2.34335e-19, 0.0000000E+000
 467.51,-0.40821,-0.0586382, 634.018, 625.138, 23.7431, 22.488, 0.03487, 24.4461, 2.34335e-19, 0.0000000E+000
 473.01,-0.40821,-0.0586382, 634.247, 625.473, 23.8823, 22.5771, 0.03487, 24.4461, 2.34335e-19, 0.0000000E+000
 478.51,-0.40821,-0.0586382, 634.461, 625.787, 24.0255, 22.6696, 0.03487, 24.4461, 2.34335e-19, 0.0000000E+000
 484.01,-0.40821,-0.0586382, 634.668, 626.102, 24.1727, 22.7654, 0.03487, 24.4461, 2.34335e-19, 0.0000000E+000
 489.51,-0.40821,-0.0586382, 634.871, 626.399, 24.3236, 22.8647, 0.03487, 24.4461, 2.34335e-19, 0.0000000E+000
 495.01,-0.40821,-0.0586382, 635.069, 626.688, 24.4785, 22.9674, 0.03487, 24.4461, 2.34335e-19, 0.0000000E+000
 500,-0.40821,-0.0586382, 635.229, 626.934, 24.6224, 23.0636, 0.03487, 24.4461, 2.34335e-19, 0.0000000E+000