File: PMMA/Calibration_Results/NIST_FSRI/All_Props/GIDAZE[NIST_FSRI]_Gasification_q50_R3_Mass.csv
s,kg/m2,,C,C,C,C,m,kg/m2,kg/m2,kg/m2/s
Time,"SD","MF","TW1","TSB1","TAL1","TB1","DX1","SD1","SD_11","BR1"
 0.0000000E+000, 6.9619, 1.00006, 20.9, 20.9, 20.9, 20.9, 0.040961, 31.8162, 7.37011, 0.0000000E+000
 5.51, 6.9619, 1.00006, 159.938, 20.9017, 20.9, 20.9, 0.040961, 31.8162, 7.37011, 2.28456e-08
 11.01, 6.96189, 1.00006, 230.391, 21.0325, 20.9, 20.9, 0.040961, 31.8162, 7.3701, 3.89267e-06
 16.51, 6.96175, 1.00004, 279.637, 21.9589, 20.9, 20.9, 0.0409609, 31.8161, 7.36997, 6.55325e-05
 22, 6.96057, 0.999867, 316.572, 24.0377, 20.9, 20.9, 0.04096, 31.815, 7.36889, 0.000405458
 27.5, 6.95567, 0.999163, 344.917, 27.7649, 20.9, 20.9, 0.0409562, 31.8104, 7.36425, 0.00142475
 33, 6.94234, 0.997248, 365.922, 31.6323, 20.9, 20.9, 0.0409455, 31.7975, 7.35141, 0.0033929
 38.5, 6.91576, 0.99343, 380.721, 36.7722, 20.9, 20.9, 0.0409241, 31.7716, 7.32551, 0.00609211
 44.01, 6.8736, 0.987374, 390.714, 41.4391, 20.9, 20.9, 0.0408898, 31.7301, 7.28397, 0.00895353
 49.51, 6.81648, 0.979168, 397.373, 47.9612, 20.9, 20.9, 0.0408431, 31.6736, 7.22746, 0.0115156
 55.01, 6.74661, 0.969132, 401.918, 53.6531, 20.9, 20.9, 0.0407858, 31.6042, 7.1581, 0.0136237
 60.51, 6.66647, 0.95762, 405.142, 59.5808, 20.9, 20.9, 0.0407199, 31.5245, 7.07836, 0.0153012
 66.01, 6.57819, 0.944939, 407.565, 65.1786, 20.9, 20.9, 0.0406472, 31.4365, 6.9904, 0.0166299
 71.51, 6.48345, 0.931329, 409.436, 71.5286, 20.9, 20.9, 0.0405691, 31.342, 6.89591, 0.0176857
 77, 6.3835, 0.916971, 410.987, 76.9462, 20.9, 20.9, 0.0404868, 31.2425, 6.79635, 0.0185529
 82.5, 6.27921, 0.901991, 412.308, 83.9554, 20.9, 20.9, 0.0404008, 31.1384, 6.69225, 0.0192825
 88, 6.17122, 0.886479, 413.491, 90.0964, 20.9, 20.9, 0.0403117, 31.0305, 6.58441, 0.0199126
 93.5, 6.06, 0.870502, 414.575, 95.8528, 20.9001, 20.9, 0.0402199, 30.9194, 6.47333, 0.0204674
 99, 5.94592, 0.854115, 415.582, 101.936, 20.9002, 20.9, 0.0401257, 30.8055, 6.35938, 0.0209641
 104.5, 5.82927, 0.837358, 416.555, 107.484, 20.9003, 20.9, 0.0400294, 30.689, 6.24283, 0.0214145
 110, 5.71026, 0.820263, 417.458, 113.528, 20.9005, 20.9001, 0.0399311, 30.57, 6.12392, 0.0218227
 115.5, 5.58903, 0.802848, 418.342, 119.302, 20.9008, 20.9001, 0.039831, 30.4489, 6.00279, 0.0222108
 121, 5.46575, 0.78514, 419.226, 125.081, 20.9013, 20.9002, 0.0397292, 30.3257, 5.87961, 0.0225815
 126.5, 5.34054, 0.767154, 420.07, 129.861, 20.9019, 20.9003, 0.0396258, 30.2006, 5.75448, 0.0229234
 132, 5.21345, 0.748897, 420.894, 135.641, 20.9028, 20.9004, 0.0395208, 30.0736, 5.62747, 0.0232499
 137.5, 5.08461, 0.73039, 421.743, 142.499, 20.9039, 20.9006, 0.0394144, 29.9448, 5.49871, 0.0235746
 143, 4.95405, 0.711636, 422.53, 147.234, 20.9053, 20.9009, 0.0393066, 29.8144, 5.36823, 0.0238678
 148.5, 4.82179, 0.692637, 423.366, 152.584, 20.9072, 20.9013, 0.0391973, 29.6822, 5.23605, 0.0241843
 154, 4.68791, 0.673405, 424.197, 159.739, 20.9095, 20.9019, 0.0390867, 29.5484, 5.10224, 0.0244859
 159.51, 4.55234, 0.653931, 424.997, 164.079, 20.9122, 20.9025, 0.0389746, 29.4127, 4.96662, 0.0247774
 165.01, 4.41515, 0.634224, 425.848, 170.64, 20.9156, 20.9034, 0.0388612, 29.2755, 4.82938, 0.0250874
 170.51, 4.27631, 0.61428, 426.639, 177.018, 20.9196, 20.9044, 0.0387465, 29.1367, 4.69061, 0.0253715
 176.01, 4.13578, 0.594093, 427.497, 181.729, 20.9242, 20.9057, 0.0386305, 28.9963, 4.55016, 0.0256891
 181.51, 3.99361, 0.573671, 428.344, 188.283, 20.9296, 20.9073, 0.038513, 28.8542, 4.40806, 0.0259963
 187.01, 3.8497, 0.552998, 429.172, 196.066, 20.9359, 20.9092, 0.0383942, 28.7103, 4.26422, 0.0263022
 192.51, 3.70405, 0.532077, 430.051, 201.798, 20.943, 20.9114, 0.0382738, 28.5648, 4.11866, 0.0266377
 198.01, 3.55659, 0.510894, 430.889, 206.51, 20.951, 20.914, 0.038152, 28.4174, 3.97127, 0.0269578
 203.51, 3.40719, 0.489433, 431.791, 212.883, 20.9601, 20.9171, 0.0380286, 28.2681, 3.82196, 0.0273224
 209.01, 3.25585, 0.467694, 432.7, 222.647, 20.9702, 20.9206, 0.0379036, 28.1168, 3.67071, 0.0276937
 214.51, 3.10241, 0.445652, 433.582, 227.472, 20.9815, 20.9247, 0.0377769, 27.9635, 3.51736, 0.0280674
 220.01, 2.94674, 0.423291, 434.533, 235.36, 20.9939, 20.9293, 0.0376483, 27.8079, 3.36179, 0.0284971
 225.51, 2.78872, 0.400592, 435.493, 246.099, 21.0075, 20.9346, 0.0375178, 27.65, 3.20388, 0.0289446
 231.01, 2.62811, 0.377521, 436.436, 253.781, 21.0225, 20.9405, 0.0373852, 27.4895, 3.04339, 0.0294168
 236.51, 2.46469, 0.354045, 437.461, 262.229, 21.0388, 20.9471, 0.0372502, 27.3262, 2.88009, 0.0299596
 242.01, 2.29816, 0.330125, 438.519, 271.062, 21.0565, 20.9544, 0.0371127, 27.1598, 2.71371, 0.0305582
 247.51, 2.12817, 0.305705, 439.599, 280.323, 21.0757, 20.9626, 0.0369724, 26.99, 2.54387, 0.0312208
 253.01, 1.95425, 0.280722, 440.712, 289.614, 21.0964, 20.9716, 0.0368288, 26.8163, 2.37013, 0.0319656
 258.51, 1.77588, 0.2551, 441.917, 299.452, 21.1186, 20.9814, 0.0366815, 26.6381, 2.19197, 0.0328275
 264.01, 1.59242, 0.228746, 443.19, 308.501, 21.1424, 20.9923, 0.0365301, 26.4549, 2.00875, 0.0338172
 269.51, 1.40306, 0.201545, 444.558, 325.335, 21.1679, 21.0041, 0.0363739, 26.2658, 1.81966, 0.0349674
 275.01, 1.20678, 0.173351, 446.048, 333.237, 21.1951, 21.017, 0.0362119, 26.0698, 1.62372, 0.036316
 280.51, 1.00235, 0.143985, 447.739, 352.203, 21.2241, 21.0309, 0.0360433, 25.8658, 1.41967, 0.0379249
 286.01, 0.788136, 0.113213, 449.696, 366.884, 21.2549, 21.046, 0.0358666, 25.652, 1.20592, 0.039857
 291.51, 0.562105, 0.0807449, 452.167, 385.944, 21.2875, 21.0622, 0.0356803, 25.4266, 0.980452, 0.0421981
 297.01, 0.321764, 0.0462204, 455.731, 411.549, 21.3221, 21.0797, 0.0354822, 25.1869, 0.740789, 0.0450163
 302.51, 0.0651756, 0.00936229, 462.335, 438.996, 21.3587, 21.0985, 0.0352707, 24.931, 0.484896, 0.0479253
 308.01,-0.198918,-0.028574, 480.189, 483.728, 21.3973, 21.1185, 0.0350522, 24.6666, 0.220446, 0.0466039
 313.51,-0.39236,-0.0563615, 538.616, 539.549, 21.4379, 21.14, 0.0348864, 24.466, 0.0198714, 0.0176677
 319.01,-0.40821,-0.0586382, 560.01, 581.333, 21.4808, 21.1629, 0.03487, 24.4461, 0.0000000E+000, 0.0000000E+000
 324.51,-0.40821,-0.0586382, 569.591, 590.964, 21.5259, 21.1872, 0.03487, 24.4461, 0.0000000E+000, 0.0000000E+000
 330.01,-0.40821,-0.0586382, 575.74, 597.141, 21.5732, 21.2131, 0.03487, 24.4461, 0.0000000E+000, 0.0000000E+000
 335.51,-0.40821,-0.0586382, 580.133, 601.572, 21.623, 21.2405, 0.03487, 24.4461, 0.0000000E+000, 0.0000000E+000
 341.01,-0.40821,-0.0586382, 583.544, 604.984, 21.6753, 21.2696, 0.03487, 24.4461, 0.0000000E+000, 0.0000000E+000
 346.51,-0.40821,-0.0586382, 586.261, 607.738, 21.7301, 21.3004, 0.03487, 24.4461, 0.0000000E+000, 0.0000000E+000
 352.01,-0.40821,-0.0586382, 588.557, 610.024, 21.7876, 21.333, 0.03487, 24.4461, 0.0000000E+000, 0.0000000E+000
 357.51,-0.40821,-0.0586382, 590.492, 611.967, 21.848, 21.3673, 0.03487, 24.4461, 0.0000000E+000, 0.0000000E+000
 363.01,-0.40821,-0.0586382, 592.15, 613.655, 21.9115, 21.4036, 0.03487, 24.4461, 0.0000000E+000, 0.0000000E+000
 368.51,-0.40821,-0.0586382, 593.635, 615.132, 21.9783, 21.4419, 0.03487, 24.4461, 0.0000000E+000, 0.0000000E+000
 374.01,-0.40821,-0.0586382, 594.937, 616.45, 22.0488, 21.4822, 0.03487, 24.4461, 0.0000000E+000, 0.0000000E+000
 379.51,-0.40821,-0.0586382, 596.111, 617.636, 22.1233, 21.5248, 0.03487, 24.4461, 0.0000000E+000, 0.0000000E+000
 385.01,-0.40821,-0.0586382, 597.171, 618.703, 22.2023, 21.5697, 0.03487, 24.4461, 0.0000000E+000, 0.0000000E+000
 390.51,-0.40821,-0.0586382, 598.138, 619.674, 22.2864, 21.6172, 0.03487, 24.4461, 0.0000000E+000, 0.0000000E+000
 396.01,-0.40821,-0.0586382, 599.03, 620.568, 22.3759, 21.6674, 0.03487, 24.4461, 0.0000000E+000, 0.0000000E+000
 401.51,-0.40821,-0.0586382, 599.855, 621.391, 22.4714, 21.7205, 0.03487, 24.4461, 0.0000000E+000, 0.0000000E+000
 407.01,-0.40821,-0.0586382, 600.619, 622.152, 22.5734, 21.7768, 0.03487, 24.4461, 0.0000000E+000, 0.0000000E+000
 412.51,-0.40821,-0.0586382, 601.326, 622.864, 22.6824, 21.8365, 0.03487, 24.4461, 0.0000000E+000, 0.0000000E+000
 418.01,-0.40821,-0.0586382, 601.972, 623.523, 22.7987, 21.8999, 0.03487, 24.4461, 0.0000000E+000, 0.0000000E+000
 423.51,-0.40821,-0.0586382, 602.596, 624.139, 22.9227, 21.9672, 0.03487, 24.4461, 0.0000000E+000, 0.0000000E+000
 429.01,-0.40821,-0.0586382, 603.159, 624.722, 23.0546, 22.0388, 0.03487, 24.4461, 0.0000000E+000, 0.0000000E+000
 434.51,-0.40821,-0.0586382, 603.714, 625.266, 23.1948, 22.1149, 0.03487, 24.4461, 0.0000000E+000, 0.0000000E+000
 440.01,-0.40821,-0.0586382, 604.213, 625.784, 23.3435, 22.1958, 0.03487, 24.4461, 0.0000000E+000, 0.0000000E+000
 445.51,-0.40821,-0.0586382, 604.713, 626.27, 23.5007, 22.2817, 0.03487, 24.4461, 0.0000000E+000, 0.0000000E+000
 451.01,-0.40821,-0.0586382, 605.163, 626.737, 23.6666, 22.3728, 0.03487, 24.4461, 0.0000000E+000, 0.0000000E+000
 456.51,-0.40821,-0.0586382, 605.614, 627.173, 23.8413, 22.4695, 0.03487, 24.4461, 0.0000000E+000, 0.0000000E+000
 462.01,-0.40821,-0.0586382, 606.018, 627.591, 24.0248, 22.5719, 0.03487, 24.4461, 0.0000000E+000, 0.0000000E+000
 467.51,-0.40821,-0.0586382, 606.432, 627.989, 24.217, 22.6802, 0.03487, 24.4461, 0.0000000E+000, 0.0000000E+000
 473.01,-0.40821,-0.0586382, 606.799, 628.37, 24.4181, 22.7947, 0.03487, 24.4461, 0.0000000E+000, 0.0000000E+000
 478.51,-0.40821,-0.0586382, 607.155, 628.738, 24.6278, 22.9154, 0.03487, 24.4461, 0.0000000E+000, 0.0000000E+000
 484.01,-0.40821,-0.0586382, 607.517, 629.083, 24.8462, 23.0426, 0.03487, 24.4461, 0.0000000E+000, 0.0000000E+000
 489.51,-0.40821,-0.0586382, 607.842, 629.419, 25.0732, 23.1763, 0.03487, 24.4461, 0.0000000E+000, 0.0000000E+000
 495.01,-0.40821,-0.0586382, 608.153, 629.741, 25.3086, 23.3167, 0.03487, 24.4461, 0.0000000E+000, 0.0000000E+000
 500,-0.40821,-0.0586382, 608.452, 630.021, 25.5297, 23.4501, 0.03487, 24.4461, 0.0000000E+000, 0.0000000E+000