File: PMMA/Calibration_Results/NIST_FSRI/All_Props/NIST[NIST_FSRI]_Gasification_q50_R3_Mass.csv
s,kg/m2,,C,C,C,C,m,kg/m2,kg/m2,kg/m2/s
Time,"SD","MF","TW1","TSB1","TAL1","TB1","DX1","SD1","SD_11","BR1"
 0.0000000E+000, 6.96179, 1.00004, 20.9, 20.9, 20.9, 20.9, 0.04157, 31.8161, 7.37, 0.0000000E+000
 5.51, 6.96179, 1.00004, 178.749, 20.9, 20.9, 20.9, 0.04157, 31.8161, 7.37, 2.31991e-11
 11.01, 6.96179, 1.00004, 237.257, 20.9002, 20.9, 20.9, 0.04157, 31.8161, 7.37, 1.95745e-08
 16.51, 6.96179, 1.00004, 277.88, 20.9094, 20.9, 20.9, 0.04157, 31.8161, 7.37, 8.76403e-07
 22, 6.96176, 1.00004, 309.072, 20.9908, 20.9, 20.9, 0.04157, 31.8161, 7.36997, 1.12059e-05
 27.5, 6.96156, 1.00001, 334.221, 21.2894, 20.9, 20.9, 0.0415698, 31.8159, 7.36979, 7.21242e-05
 33, 6.9606, 0.999871, 354.766, 21.9774, 20.9, 20.9, 0.041569, 31.815, 7.36889, 0.000295952
 38.5, 6.95746, 0.99942, 371.246, 23.1945, 20.9, 20.9, 0.0415663, 31.812, 7.36589, 0.000863909
 44.01, 6.94982, 0.998322, 383.777, 25.0276, 20.9, 20.9, 0.0415595, 31.8046, 7.35849, 0.00189291
 49.51, 6.93542, 0.996253, 392.607, 27.5008, 20.9, 20.9, 0.0415467, 31.7905, 7.34441, 0.00325392
 55.01, 6.91323, 0.993066, 398.536, 30.6071, 20.9, 20.9, 0.0415269, 31.7687, 7.32257, 0.00467414
 60.51, 6.88358, 0.988806, 402.492, 34.3088, 20.9, 20.9, 0.0415002, 31.7393, 7.29322, 0.00596236
 66.01, 6.8474, 0.983609, 405.205, 38.5509, 20.9, 20.9, 0.0414676, 31.7034, 7.25731, 0.0070629
 71.51, 6.8057, 0.97762, 407.14, 43.268, 20.9, 20.9, 0.0414298, 31.662, 7.21583, 0.00798888
 77, 6.75935, 0.970962, 408.578, 48.3809, 20.9, 20.9, 0.041388, 31.6159, 7.16976, 0.00877249
 82.5, 6.70904, 0.963735, 409.683, 53.8391, 20.9, 20.9, 0.0413424, 31.5657, 7.11961, 0.00944398
 88, 6.65531, 0.956016, 410.56, 59.5686, 20.9, 20.9, 0.0412937, 31.5121, 7.06602, 0.0100282
 93.5, 6.59857, 0.947866, 411.274, 65.5109, 20.9, 20.9, 0.0412422, 31.4555, 7.00941, 0.010545
 99, 6.53916, 0.939331, 411.869, 71.6152, 20.9, 20.9, 0.0411883, 31.3962, 6.95012, 0.0110089
 104.5, 6.47734, 0.930451, 412.371, 77.8385, 20.9, 20.9, 0.0411322, 31.3345, 6.88841, 0.0114286
 110, 6.4133, 0.921253, 412.798, 84.1456, 20.9, 20.9, 0.0410741, 31.2706, 6.82447, 0.0118131
 115.5, 6.34723, 0.911762, 413.182, 90.5076, 20.9001, 20.9, 0.0410141, 31.2046, 6.75849, 0.0121766
 121, 6.27925, 0.901997, 413.508, 96.9018, 20.9001, 20.9, 0.0409524, 31.1367, 6.69059, 0.0125104
 126.5, 6.20945, 0.89197, 413.817, 103.31, 20.9002, 20.9, 0.040889, 31.067, 6.62087, 0.012838
 132, 6.13792, 0.881695, 414.081, 109.719, 20.9003, 20.9, 0.040824, 30.9955, 6.54942, 0.0131422
 137.5, 6.06472, 0.87118, 414.34, 116.118, 20.9005, 20.9001, 0.0407575, 30.9224, 6.47629, 0.0134476
 143, 5.98989, 0.860431, 414.562, 122.499, 20.9008, 20.9001, 0.0406896, 30.8477, 6.40154, 0.0137339
 148.5, 5.91349, 0.849456, 414.786, 128.856, 20.9012, 20.9002, 0.0406202, 30.7713, 6.3252, 0.0140251
 154, 5.8355, 0.838253, 414.983, 135.186, 20.9017, 20.9003, 0.0405494, 30.6934, 6.24729, 0.0143044
 159.51, 5.756, 0.826833, 415.171, 141.491, 20.9024, 20.9004, 0.0404771, 30.6139, 6.16779, 0.0145816
 165.01, 5.67494, 0.815189, 415.359, 147.766, 20.9034, 20.9006, 0.0404034, 30.5328, 6.08671, 0.0148651
 170.51, 5.59237, 0.803328, 415.522, 154.002, 20.9045, 20.9008, 0.0403284, 30.4503, 6.00421, 0.015136
 176.01, 5.50827, 0.791247, 415.698, 160.207, 20.9059, 20.9011, 0.040252, 30.3663, 5.92018, 0.0154203
 181.51, 5.42263, 0.778945, 415.85, 166.379, 20.9077, 20.9016, 0.0401742, 30.2807, 5.83461, 0.0156949
 187.01, 5.33548, 0.766427, 416.003, 172.52, 20.9099, 20.9021, 0.040095, 30.1937, 5.74753, 0.0159741
 192.51, 5.24676, 0.753683, 416.153, 178.629, 20.9125, 20.9027, 0.0400144, 30.105, 5.65887, 0.0162597
 198.01, 5.1565, 0.740717, 416.285, 184.709, 20.9156, 20.9035, 0.0399324, 30.0148, 5.56868, 0.0165364
 203.51, 5.06467, 0.727526, 416.434, 190.759, 20.9192, 20.9045, 0.039849, 29.923, 5.47692, 0.0168323
 209.01, 4.97123, 0.714103, 416.561, 196.781, 20.9234, 20.9058, 0.0397641, 29.8297, 5.38355, 0.0171195
 214.51, 4.87621, 0.700454, 416.682, 202.774, 20.9282, 20.9072, 0.0396778, 29.7347, 5.2886, 0.0174085
 220.01, 4.77952, 0.686565, 416.817, 208.74, 20.9338, 20.9089, 0.03959, 29.6381, 5.19198, 0.0177152
 225.51, 4.68118, 0.672439, 416.933, 214.679, 20.9401, 20.9109, 0.0395007, 29.5398, 5.09372, 0.018015
 231.01, 4.58117, 0.658072, 417.063, 220.591, 20.9472, 20.9133, 0.0394098, 29.4399, 4.99378, 0.0183336
 236.51, 4.4794, 0.643453, 417.173, 226.476, 20.9551, 20.916, 0.0393174, 29.3382, 4.89209, 0.018646
 242.01, 4.37591, 0.628587, 417.275, 232.332, 20.964, 20.9191, 0.0392233, 29.2348, 4.78867, 0.0189597
 247.51, 4.27059, 0.613458, 417.399, 238.16, 20.9739, 20.9227, 0.0391277, 29.1295, 4.68343, 0.0193
 253.01, 4.16344, 0.598066, 417.5, 243.956, 20.9847, 20.9267, 0.0390303, 29.0225, 4.57636, 0.019633
 258.51, 4.05442, 0.582406, 417.616, 249.719, 20.9966, 20.9313, 0.0389313, 28.9135, 4.46743, 0.019988
 264.01, 3.94343, 0.566463, 417.712, 255.445, 21.0096, 20.9364, 0.0388305, 28.8026, 4.35653, 0.0203394
 269.51, 3.83049, 0.550239, 417.804, 261.13, 21.0238, 20.9421, 0.0387279, 28.6898, 4.24367, 0.020698
 275.01, 3.71546, 0.533716, 417.916, 266.767, 21.0391, 20.9484, 0.0386234, 28.5749, 4.12873, 0.0210865
 280.51, 3.59834, 0.516892, 418.006, 272.347, 21.0557, 20.9555, 0.038517, 28.4578, 4.01171, 0.0214705
 286.01, 3.47905, 0.499755, 418.112, 277.845, 21.0735, 20.9632, 0.0384086, 28.3386, 3.89251, 0.0218807
 291.51, 3.35749, 0.482294, 418.196, 283.265, 21.0927, 20.9717, 0.0382982, 28.2172, 3.77105, 0.0222877
 297.01, 3.23365, 0.464505, 418.29, 288.599, 21.1132, 20.981, 0.0381857, 28.0934, 3.64732, 0.0227139
 302.51, 3.10741, 0.44637, 418.373, 293.826, 21.1351, 20.9911, 0.0380711, 27.9673, 3.52117, 0.0231481
 308.01, 2.97877, 0.427892, 418.451, 298.928, 21.1584, 21.002, 0.0379542, 27.8388, 3.39264, 0.0235889
 313.51, 2.84763, 0.409055, 418.543, 303.898, 21.1831, 21.0139, 0.0378351, 27.7077, 3.26162, 0.0240501
 319.01, 2.71402, 0.389862, 418.613, 308.725, 21.2093, 21.0267, 0.0377137, 27.5742, 3.12811, 0.0244981
 324.51, 2.57792, 0.370311, 418.696, 313.396, 21.237, 21.0405, 0.0375901, 27.4382, 2.99212, 0.0249577
 330.01, 2.43934, 0.350404, 418.758, 317.903, 21.2662, 21.0553, 0.0374642, 27.2998, 2.85364, 0.0253953
 335.51, 2.29837, 0.330154, 418.833, 322.257, 21.297, 21.0711, 0.0373362, 27.1589, 2.71278, 0.0258315
 341.01, 2.15506, 0.309568, 418.89, 326.467, 21.3294, 21.088, 0.037206, 27.0157, 2.56956, 0.0262377
 346.51, 2.00957, 0.288669, 418.958, 330.555, 21.3633, 21.1061, 0.0370738, 26.8703, 2.42417, 0.0266284
 352.01, 1.862, 0.267471, 419.019, 334.554, 21.3989, 21.1252, 0.0369397, 26.7228, 2.27669, 0.0269893
 357.51, 1.71254, 0.246002, 419.085, 338.505, 21.4361, 21.1455, 0.0368039, 26.5734, 2.12731, 0.027321
 363.01, 1.56129, 0.224276, 419.167, 342.462, 21.475, 21.167, 0.0366665, 26.4223, 1.97614, 0.0276361
 368.51, 1.40843, 0.202317, 419.255, 346.482, 21.5155, 21.1898, 0.0365276, 26.2695, 1.82334, 0.0279208
 374.01, 1.254, 0.180134, 419.377, 350.626, 21.5577, 21.2138, 0.0363873, 26.1151, 1.66898, 0.0281995
 379.51, 1.09813, 0.157743, 419.531, 354.966, 21.6017, 21.239, 0.0362456, 25.9593, 1.51317, 0.0284629
 385.01, 0.940834, 0.135148, 419.723, 359.584, 21.6473, 21.2656, 0.0361027, 25.8021, 1.35594, 0.0287127
 390.51, 0.782161, 0.112355, 419.996, 364.576, 21.6947, 21.2935, 0.0359585, 25.6434, 1.19732, 0.0289627
 396.01, 0.622117, 0.0893654, 420.388, 370.067, 21.7438, 21.3228, 0.035813, 25.4835, 1.03734, 0.0292137
 401.51, 0.460721, 0.0661813, 420.959, 376.229, 21.7947, 21.3534, 0.0356664, 25.3221, 0.876001, 0.0294552
 407.01, 0.298025, 0.0428104, 421.844, 383.325, 21.8473, 21.3854, 0.0355185, 25.1595, 0.713359, 0.0296823
 412.51, 0.134179, 0.0192744, 423.317, 391.793, 21.9017, 21.4188, 0.0353696, 24.9957, 0.549558, 0.0298697
 418.01,-0.0303992,-0.00436676, 426.037, 402.484, 21.9579, 21.4537, 0.03522, 24.8311, 0.384996, 0.0299392
 423.51,-0.194548,-0.0279462, 432.023, 417.668, 22.0159, 21.49, 0.0350707, 24.6669, 0.220777, 0.0296545
 429.01,-0.352636,-0.0506552, 451.838, 447.765, 22.0756, 21.5278, 0.0349264, 24.5082, 0.0620737, 0.0272002
 434.51,-0.40821,-0.0586382, 577.639, 540.116, 22.1372, 21.5671, 0.03487, 24.4461, 0.0000000E+000, 0.0000000E+000
 440.01,-0.40821,-0.0586382, 597.996, 571.209, 22.2005, 21.6078, 0.03487, 24.4461, 0.0000000E+000, 0.0000000E+000
 445.51,-0.40821,-0.0586382, 606.39, 583.888, 22.2657, 21.6501, 0.03487, 24.4461, 0.0000000E+000, 0.0000000E+000
 451.01,-0.40821,-0.0586382, 611.335, 591.322, 22.3326, 21.6939, 0.03487, 24.4461, 0.0000000E+000, 0.0000000E+000
 456.51,-0.40821,-0.0586382, 614.753, 596.442, 22.4014, 21.7393, 0.03487, 24.4461, 0.0000000E+000, 0.0000000E+000
 462.01,-0.40821,-0.0586382, 617.313, 600.277, 22.472, 21.7862, 0.03487, 24.4461, 0.0000000E+000, 0.0000000E+000
 467.51,-0.40821,-0.0586382, 619.34, 603.304, 22.5443, 21.8346, 0.03487, 24.4461, 0.0000000E+000, 0.0000000E+000
 473.01,-0.40821,-0.0586382, 620.998, 605.77, 22.6185, 21.8846, 0.03487, 24.4461, 0.0000000E+000, 0.0000000E+000
 478.51,-0.40821,-0.0586382, 622.377, 607.832, 22.6945, 21.9362, 0.03487, 24.4461, 0.0000000E+000, 0.0000000E+000
 484.01,-0.40821,-0.0586382, 623.568, 609.604, 22.7724, 21.9894, 0.03487, 24.4461, 0.0000000E+000, 0.0000000E+000
 489.51,-0.40821,-0.0586382, 624.602, 611.153, 22.8521, 22.0442, 0.03487, 24.4461, 0.0000000E+000, 0.0000000E+000
 495.01,-0.40821,-0.0586382, 625.524, 612.519, 22.9336, 22.1006, 0.03487, 24.4461, 0.0000000E+000, 0.0000000E+000
 500,-0.40821,-0.0586382, 626.276, 613.635, 23.0094, 22.1533, 0.03487, 24.4461, 0.0000000E+000, 0.0000000E+000