File: PMMA/Calibration_Results/NIST_FSRI/All_Props/UMD[NIST_FSRI]_Gasification_q50_R3_Mass.csv
s,kg/m2,,C,C,C,C,m,kg/m2,kg/m2,kg/m2,kg/m2/s
Time,"SD","MF","TW1","TSB1","TAL1","TB1","DX1","SD1","SD_11","SD_12","BR1"
 0.0000000E+000, 6.9619, 1.00006, 20.9, 20.9, 20.9, 20.9, 0.040961, 31.8162, 7.37011, 0.0000000E+000, 0.0000000E+000
 6.01, 6.96189, 1.00006, 161.955, 20.9022, 20.9, 20.9, 0.040961, 31.8162, 7.36977, 0.000335957, 1.04197e-05
 12.01, 6.95742, 0.999414, 226.924, 21.064, 20.9, 20.9, 0.0409578, 31.8123, 7.17451, 0.191684, 0.00230182
 18, 6.94742, 0.997978, 274.884, 22.0823, 20.9, 20.9, 0.0409494, 31.8022, 6.67017, 0.685904, 0.00183525
 24, 6.94142, 0.997116, 313.191, 24.4899, 20.9, 20.9, 0.0409443, 31.7961, 6.38967, 0.960285, 0.00127059
 30, 6.93148, 0.995687, 343.184, 28.2646, 20.9, 20.9, 0.0409362, 31.7862, 6.07663, 1.26349, 0.00168513
 36, 6.91277, 0.993001, 363.895, 33.1303, 20.9, 20.9, 0.0409214, 31.7683, 5.86438, 1.45777, 0.00459883
 42, 6.87615, 0.987739, 375.558, 38.7875, 20.9, 20.9, 0.0408916, 31.7323, 5.62017, 1.66601, 0.00725723
 48.01, 6.82378, 0.980217, 381.541, 44.9976, 20.9, 20.9, 0.0408488, 31.6805, 5.44239, 1.79199, 0.00991432
 54.01, 6.758, 0.970768, 384.95, 51.5476, 20.9, 20.9, 0.0407948, 31.6151, 5.22337, 1.94565, 0.0116949
 60.01, 6.68398, 0.960135, 387.072, 58.3038, 20.9, 20.9, 0.0407339, 31.5414, 5.04288, 2.0524, 0.0128485
 66.01, 6.60341, 0.948562, 388.703, 65.1581, 20.9, 20.9, 0.0406675, 31.4611, 4.87625, 2.13871, 0.013895
 72.01, 6.51723, 0.936182, 389.887, 72.0369, 20.9, 20.9, 0.0405964, 31.3751, 4.69547, 2.2335, 0.0147225
 78, 6.42682, 0.923195, 390.929, 78.8739, 20.9, 20.9, 0.040522, 31.285, 4.52085, 2.31802, 0.0153414
 84, 6.333, 0.909718, 391.83, 85.6575, 20.9, 20.9, 0.0404445, 31.1913, 4.3587, 2.38649, 0.0158845
 90, 6.23601, 0.895785, 392.741, 92.354, 20.9, 20.9, 0.0403645, 31.0944, 4.19608, 2.45224, 0.0164007
 96, 6.13613, 0.881438, 393.458, 98.951, 20.9001, 20.9, 0.040282, 30.9947, 4.0283, 2.52025, 0.0168398
 102, 6.03377, 0.866734, 394.158, 105.444, 20.9002, 20.9, 0.0401975, 30.8924, 3.8612, 2.58508, 0.0172329
 108, 5.92921, 0.851714, 394.918, 111.834, 20.9003, 20.9, 0.0401112, 30.7879, 3.69668, 2.64514, 0.0175941
 114, 5.8225, 0.836385, 395.538, 118.115, 20.9006, 20.9001, 0.0400231, 30.6813, 3.53035, 2.70484, 0.0179439
 120, 5.71378, 0.820768, 396.253, 124.162, 20.901, 20.9001, 0.0399333, 30.5727, 3.35977, 2.76679, 0.0182748
 126, 5.60313, 0.804873, 396.855, 129.962, 20.9016, 20.9002, 0.0398419, 30.4621, 3.1865, 2.82948, 0.0185803
 132, 5.49071, 0.788725, 397.535, 135.713, 20.9024, 20.9004, 0.039749, 30.3498, 3.01078, 2.89286, 0.0188756
 138, 5.37647, 0.772315, 398.126, 141.448, 20.9035, 20.9006, 0.0396547, 30.2356, 2.83022, 2.95926, 0.0191754
 144, 5.26051, 0.755657, 398.788, 147.168, 20.905, 20.9009, 0.0395589, 30.1197, 2.64353, 3.03005, 0.0194522
 150, 5.14279, 0.738747, 399.48, 152.875, 20.907, 20.9013, 0.0394617, 30.0021, 2.45054, 3.10539, 0.0197507
 156, 5.02336, 0.721591, 400.047, 158.572, 20.9094, 20.9018, 0.039363, 29.8827, 2.2498, 3.18677, 0.0200289
 162.01, 4.90219, 0.704186, 400.747, 164.271, 20.9125, 20.9026, 0.0392628, 29.7614, 2.03933, 3.27595, 0.0203336
 168.01, 4.77926, 0.686527, 401.338, 169.958, 20.9162, 20.9035, 0.0391613, 29.6385, 1.81894, 3.37347, 0.0206204
 174.01, 4.6546, 0.66862, 402.034, 175.646, 20.9207, 20.9047, 0.0390583, 29.514, 1.58735, 3.48048, 0.0209217
 180.01, 4.52812, 0.650452, 402.627, 181.341, 20.9261, 20.9062, 0.0389538, 29.3875, 1.34457, 3.59686, 0.0212115
 186.01, 4.39998, 0.632044, 403.302, 187.054, 20.9324, 20.9081, 0.038848, 29.2595, 1.09264, 3.72071, 0.0214794
 192.01, 4.27015, 0.613394, 404.028, 192.798, 20.9397, 20.9103, 0.0387407, 29.1297, 0.836902, 3.84668, 0.0217559
 198.01, 4.13891, 0.594543, 404.647, 198.596, 20.9481, 20.913, 0.0386323, 28.9985, 0.588048, 3.96434, 0.0219623
 204.01, 4.00659, 0.575535, 405.372, 204.481, 20.9577, 20.9162, 0.038523, 28.8662, 0.363197, 4.05691, 0.0221264
 210.01, 3.87355, 0.556424, 405.999, 210.489, 20.9685, 20.92, 0.038413, 28.7332, 0.184043, 4.10304, 0.0222044
 216.01, 3.74017, 0.537266, 406.718, 216.639, 20.9807, 20.9244, 0.0383028, 28.5998, 0.068311, 4.08542, 0.0222624
 222.01, 3.60629, 0.518033, 407.357, 222.907, 20.9943, 20.9294, 0.0381922, 28.466, 0.0154014, 4.00447, 0.0223717
 228.01, 3.47145, 0.498663, 408.063, 229.242, 21.0093, 20.9352, 0.0380808, 28.3312, 0.00155397, 3.88352, 0.0225779
 234.01, 3.33495, 0.479057, 408.814, 235.625, 21.0258, 20.9417, 0.0379681, 28.1948, 4.27124e-05, 3.74861, 0.0228906
 240.01, 3.19658, 0.459179, 409.474, 242.07, 21.044, 20.9491, 0.0378538, 28.0565, 1.41176e-07, 3.61036, 0.0232096
 246.01, 3.05618, 0.439012, 410.243, 248.601, 21.0638, 20.9575, 0.0377378, 27.9162, 1.45052e-11, 3.47005, 0.0235655
 252.01, 2.91364, 0.418537, 410.932, 255.232, 21.0853, 20.9667, 0.0376201, 27.7737, 5.94586e-18, 3.3276, 0.0239183
 258.01, 2.76893, 0.397749, 411.715, 261.982, 21.1085, 20.977, 0.0375006, 27.6291, 9.34194e-19, 3.18297, 0.024301
 264.01, 2.62183, 0.376618, 412.43, 268.861, 21.1336, 20.9884, 0.0373791, 27.4821, 9.34194e-19, 3.03596, 0.0246992
 270.01, 2.47231, 0.355141, 413.204, 275.867, 21.1606, 21.001, 0.0372556, 27.3327, 9.34194e-19, 2.88655, 0.0251101
 276.01, 2.32013, 0.333281, 414.032, 283.018, 21.1894, 21.0147, 0.0371299, 27.1806, 7.64199e-19, 2.73448, 0.0255697
 282.01, 2.16522, 0.311028, 414.773, 290.336, 21.2203, 21.0296, 0.037002, 27.0258, 7.10628e-19, 2.57968, 0.0260318
 288.01, 2.00735, 0.28835, 415.614, 297.827, 21.2531, 21.0459, 0.0368716, 26.8681, 7.10628e-19, 2.42193, 0.0265515
 294.01, 1.84632, 0.265219, 416.392, 305.517, 21.288, 21.0635, 0.0367386, 26.7072, 7.10628e-19, 2.26103, 0.027085
 300.01, 1.68195, 0.241607, 417.267, 313.428, 21.3251, 21.0825, 0.0366029, 26.5429, 5.88427e-19, 2.0968, 0.0276689
 306.01, 1.51399, 0.21748, 418.071, 321.595, 21.3643, 21.103, 0.0364642, 26.3751, 4.9862e-19, 1.92898, 0.0282708
 312.01, 1.34227, 0.192813, 418.963, 330.074, 21.4057, 21.125, 0.0363224, 26.2035, 4.61306e-19, 1.75742, 0.0289267
 318.01, 1.16654, 0.16757, 419.814, 338.948, 21.4493, 21.1486, 0.0361773, 26.028, 4.25212e-19, 1.58185, 0.0295982
 324.01, 0.986723, 0.14174, 420.738, 348.365, 21.4953, 21.1738, 0.0360288, 25.8483, 2.50131e-19, 1.40221, 0.0302921
 330.01, 0.802655, 0.115299, 421.667, 358.546, 21.5435, 21.2006, 0.0358769, 25.6644, 2.44393e-19, 1.21831, 0.0310008
 336.01, 0.61438, 0.0882539, 422.705, 369.847, 21.5942, 21.2291, 0.0357214, 25.4763, 2.44393e-19, 1.0302, 0.0316997
 342.01, 0.421977, 0.0606158, 423.855, 382.802, 21.6474, 21.2594, 0.0355625, 25.2841, 1.85393e-19, 0.837955, 0.0323583
 348.01, 0.226025, 0.0324678, 425.401, 398.18, 21.703, 21.2915, 0.0354007, 25.0882, 1.38914e-19, 0.642124, 0.0328676
 354.01, 0.0285404, 0.00409975, 427.941, 416.956, 21.7612, 21.3255, 0.0352375, 24.8907, 9.51977e-20, 0.444621, 0.0328032
 360.01,-0.163211,-0.0234448, 433.677, 439.719, 21.8219, 21.3613, 0.0350786, 24.6985, 5.5815e-20, 0.252358, 0.0307222
 366.01,-0.327509,-0.0470457, 452.839, 465.377, 21.8854, 21.3991, 0.0349413, 24.5324, 4.25e-21, 0.0863056, 0.0235114
 372.01,-0.40821,-0.0586382, 540.804, 562.018, 21.9515, 21.4389, 0.03487, 24.4461, 0.0000000E+000, 0.0000000E+000, 0.0000000E+000
 378.01,-0.40821,-0.0586382, 565.032, 586.383, 22.0205, 21.4808, 0.03487, 24.4461, 0.0000000E+000, 0.0000000E+000, 0.0000000E+000
 384.01,-0.40821,-0.0586382, 574.315, 595.719, 22.0923, 21.5248, 0.03487, 24.4461, 0.0000000E+000, 0.0000000E+000, 0.0000000E+000
 390.01,-0.40821,-0.0586382, 580.016, 601.45, 22.167, 21.5709, 0.03487, 24.4461, 0.0000000E+000, 0.0000000E+000, 0.0000000E+000
 396.01,-0.40821,-0.0586382, 584.059, 605.518, 22.2448, 21.6192, 0.03487, 24.4461, 0.0000000E+000, 0.0000000E+000, 0.0000000E+000
 402.01,-0.40821,-0.0586382, 587.16, 608.639, 22.3257, 21.6698, 0.03487, 24.4461, 0.0000000E+000, 0.0000000E+000, 0.0000000E+000
 408.01,-0.40821,-0.0586382, 589.666, 611.142, 22.4098, 21.7228, 0.03487, 24.4461, 0.0000000E+000, 0.0000000E+000, 0.0000000E+000
 414.01,-0.40821,-0.0586382, 591.73, 613.219, 22.4973, 21.7781, 0.03487, 24.4461, 0.0000000E+000, 0.0000000E+000, 0.0000000E+000
 420.01,-0.40821,-0.0586382, 593.497, 614.988, 22.5885, 21.8359, 0.03487, 24.4461, 0.0000000E+000, 0.0000000E+000, 0.0000000E+000
 426.01,-0.40821,-0.0586382, 595.005, 616.521, 22.6835, 21.8963, 0.03487, 24.4461, 0.0000000E+000, 0.0000000E+000, 0.0000000E+000
 432.01,-0.40821,-0.0586382, 596.353, 617.867, 22.7828, 21.9594, 0.03487, 24.4461, 0.0000000E+000, 0.0000000E+000, 0.0000000E+000
 438.01,-0.40821,-0.0586382, 597.546, 619.06, 22.8869, 22.0253, 0.03487, 24.4461, 0.0000000E+000, 0.0000000E+000, 0.0000000E+000
 444.01,-0.40821,-0.0586382, 598.613, 620.135, 22.9962, 22.0941, 0.03487, 24.4461, 0.0000000E+000, 0.0000000E+000, 0.0000000E+000
 450.01,-0.40821,-0.0586382, 599.578, 621.104, 23.1114, 22.1661, 0.03487, 24.4461, 0.0000000E+000, 0.0000000E+000, 0.0000000E+000
 456.01,-0.40821,-0.0586382, 600.466, 621.993, 23.2331, 22.2415, 0.03487, 24.4461, 0.0000000E+000, 0.0000000E+000, 0.0000000E+000
 462.01,-0.40821,-0.0586382, 601.253, 622.81, 23.3619, 22.3206, 0.03487, 24.4461, 0.0000000E+000, 0.0000000E+000, 0.0000000E+000
 468.01,-0.40821,-0.0586382, 602.004, 623.556, 23.4984, 22.4037, 0.03487, 24.4461, 0.0000000E+000, 0.0000000E+000, 0.0000000E+000
 474.01,-0.40821,-0.0586382, 602.701, 624.247, 23.6431, 22.491, 0.03487, 24.4461, 0.0000000E+000, 0.0000000E+000, 0.0000000E+000
 480.01,-0.40821,-0.0586382, 603.354, 624.892, 23.7964, 22.5828, 0.03487, 24.4461, 0.0000000E+000, 0.0000000E+000, 0.0000000E+000
 486.01,-0.40821,-0.0586382, 603.936, 625.497, 23.9589, 22.6796, 0.03487, 24.4461, 0.0000000E+000, 0.0000000E+000, 0.0000000E+000
 492.01,-0.40821,-0.0586382, 604.509, 626.059, 24.1307, 22.7816, 0.03487, 24.4461, 0.0000000E+000, 0.0000000E+000, 0.0000000E+000
 498.01,-0.40821,-0.0586382, 605.022, 626.591, 24.3122, 22.8892, 0.03487, 24.4461, 0.0000000E+000, 0.0000000E+000, 0.0000000E+000
 500,-0.40821,-0.0586382, 605.187, 626.762, 24.3747, 22.9262, 0.03487, 24.4461, 0.0000000E+000, 0.0000000E+000, 0.0000000E+000