File: PMMA/Calibration_Results/NIST_FSRI/All_Props/UMET_GP[NIST_FSRI]_Gasification_q50_R3_Mass.csv
s,kg/m2,,C,C,C,C,m,kg/m2,kg/m2,kg/m2,kg/m2/s
Time,"SD","MF","TW1","TSB1","TAL1","TB1","DX1","SD1","SD_11","SD_12","BR1"
 0.0000000E+000, 6.96099, 0.999927, 20.9, 20.9, 20.9, 20.9, 0.041011, 31.8153, 7.3692, 0.0000000E+000, 0.0000000E+000
 6.01, 6.92068, 0.994136, 138.259, 20.891, 20.9, 20.9, 0.0409788, 31.7767, 6.35391, 0.976711, 0.00726672
 12.01, 6.88571, 0.989113, 198.236, 21.2315, 20.9, 20.9, 0.0409493, 31.7413, 5.42021, 1.87493, 0.00507781
 18, 6.85792, 0.985121, 239.557, 23.0115, 20.9, 20.9, 0.040926, 31.7133, 4.68673, 2.58046, 0.00435684
 24, 6.83102, 0.981258, 269.72, 26.9156, 20.9, 20.9, 0.0409037, 31.6866, 4.04542, 3.19507, 0.00498553
 30, 6.78944, 0.975284, 285.974, 31.8967, 20.9, 20.9, 0.0408699, 31.646, 3.45806, 3.74184, 0.00891233
 36, 6.72325, 0.965776, 291.478, 39.018, 20.9, 20.9, 0.0408155, 31.5807, 2.899, 4.23562, 0.0125583
 42, 6.63985, 0.953797, 293.723, 46.4094, 20.9, 20.9, 0.0407465, 31.4979, 2.34828, 4.70351, 0.0148835
 48.01, 6.54515, 0.940193, 294.982, 53.9854, 20.9, 20.9, 0.0406678, 31.4034, 1.79731, 5.16, 0.0164389
 54.01, 6.44327, 0.925558, 295.834, 60.8718, 20.9, 20.9, 0.040583, 31.3018, 1.27121, 5.58444, 0.017335
 60.01, 6.33802, 0.910439, 296.478, 68.6065, 20.9, 20.9, 0.0404954, 31.1966, 0.819884, 5.93058, 0.0176481
 66.01, 6.23214, 0.895229, 296.986, 77.6033, 20.9, 20.9, 0.0404071, 31.0907, 0.486294, 6.15828, 0.017623
 72.01, 6.12653, 0.880059, 297.429, 89.0121, 20.9, 20.9, 0.0403191, 30.9851, 0.275021, 6.26395, 0.0176124
 78, 6.02043, 0.864819, 297.812, 99.6143, 20.9, 20.9, 0.0402309, 30.8792, 0.155574, 6.27751, 0.0177715
 84, 5.91282, 0.849361, 298.165, 110.111, 20.9, 20.9, 0.0401413, 30.7717, 0.0906843, 6.23487, 0.0180946
 90, 5.80292, 0.833573, 298.508, 121.504, 20.9001, 20.9, 0.0400498, 30.6619, 0.0551688, 6.16059, 0.0185262
 96, 5.6902, 0.817381, 298.833, 128.714, 20.9002, 20.9, 0.039956, 30.5493, 0.0350452, 6.06812, 0.019003
 102, 5.57457, 0.800772, 299.143, 139.243, 20.9003, 20.9, 0.0398597, 30.4338, 0.0231592, 5.9645, 0.0194957
 108, 5.45598, 0.783737, 299.443, 148.162, 20.9005, 20.9001, 0.039761, 30.3153, 0.015848, 5.85335, 0.0199934
 114, 5.3344, 0.766272, 299.746, 157.444, 20.9009, 20.9001, 0.0396598, 30.1939, 0.0111812, 5.73656, 0.0204991
 120, 5.20978, 0.748371, 300.033, 165.296, 20.9015, 20.9002, 0.039556, 30.0694, 0.00810273, 5.61514, 0.0209915
 126, 5.08227, 0.730054, 300.311, 172.824, 20.9024, 20.9003, 0.0394499, 29.942, 0.00601188, 5.48984, 0.0214731
 132, 4.95189, 0.711326, 300.582, 180.049, 20.9035, 20.9006, 0.0393413, 29.8117, 0.0045547, 5.36104, 0.0219418
 138, 4.81871, 0.692194, 300.851, 186.988, 20.9052, 20.9009, 0.0392304, 29.6786, 0.00351554, 5.22901, 0.0224113
 144, 4.68268, 0.672654, 301.128, 193.653, 20.9073, 20.9013, 0.0391172, 29.5427, 0.0027591, 5.09386, 0.0228846
 150, 4.54387, 0.652714, 301.391, 200.053, 20.91, 20.9019, 0.0390016, 29.404, 0.00219819, 4.95572, 0.0233437
 156, 4.40235, 0.632385, 301.649, 206.192, 20.9135, 20.9027, 0.0388838, 29.2626, 0.00177527, 4.81474, 0.0237888
 162.01, 4.25813, 0.611668, 301.909, 212.081, 20.9178, 20.9037, 0.0387635, 29.1183, 0.00145104, 4.6707, 0.024242
 168.01, 4.11123, 0.590567, 302.163, 217.698, 20.923, 20.9051, 0.0386411, 28.9715, 0.00119985, 4.52417, 0.0246834
 174.01, 3.96159, 0.569071, 302.434, 223.046, 20.9293, 20.9068, 0.0385165, 28.822, 0.00100238, 4.37483, 0.02515
 180.01, 3.80927, 0.547191, 302.686, 228.115, 20.9368, 20.9089, 0.0383897, 28.6697, 0.000845315, 4.22278, 0.0255861
 186.01, 3.65431, 0.524931, 302.942, 232.892, 20.9457, 20.9115, 0.0382606, 28.5149, 0.000719005, 4.06805, 0.0260284
 192.01, 3.49677, 0.502301, 303.193, 237.366, 20.9559, 20.9146, 0.0381294, 28.3574, 0.000616374, 3.91071, 0.0264503
 198.01, 3.3367, 0.479308, 303.447, 241.526, 20.9677, 20.9184, 0.0379961, 28.1975, 0.000532148, 3.75083, 0.0268669
 204.01, 3.1742, 0.455965, 303.709, 245.37, 20.9811, 20.9229, 0.0378608, 28.0351, 0.000462348, 3.58849, 0.0272703
 210.01, 3.00935, 0.432285, 303.963, 248.908, 20.9963, 20.9282, 0.0377235, 27.8703, 0.000403937, 3.42379, 0.0276432
 216.01, 2.84242, 0.408305, 304.212, 252.162, 21.0133, 20.9343, 0.0375844, 27.7035, 0.000354574, 3.25698, 0.0279711
 222.01, 2.67363, 0.384059, 304.463, 255.168, 21.0323, 20.9414, 0.0374439, 27.5347, 0.000312442, 3.08831, 0.0282672
 228.01, 2.50318, 0.359575, 304.71, 257.975, 21.0532, 20.9495, 0.0373019, 27.3644, 0.000276119, 2.91796, 0.0285162
 234.01, 2.33135, 0.334892, 304.961, 260.64, 21.0762, 20.9586, 0.0371587, 27.1926, 0.000244496, 2.74622, 0.0287395
 240.01, 2.15826, 0.310028, 305.22, 263.223, 21.1014, 20.969, 0.0370145, 27.0195, 0.000216696, 2.5732, 0.028938
 246.01, 1.98412, 0.285013, 305.471, 265.781, 21.1289, 20.9806, 0.0368694, 26.8454, 0.000192036, 2.39912, 0.0290991
 252.01, 1.80903, 0.259862, 305.724, 268.368, 21.1586, 20.9935, 0.0367235, 26.6704, 0.000169979, 2.22409, 0.0292441
 258.01, 1.63313, 0.234594, 305.98, 271.028, 21.1906, 21.0079, 0.036577, 26.4945, 0.000150106, 2.04824, 0.0293724
 264.01, 1.45645, 0.209215, 306.247, 273.817, 21.225, 21.0237, 0.0364298, 26.3179, 0.000132084, 1.87161, 0.0295012
 270.01, 1.27907, 0.183734, 306.519, 276.785, 21.2618, 21.041, 0.036282, 26.1405, 0.000115648, 1.69427, 0.0296175
 276.01, 1.10093, 0.158146, 306.818, 279.989, 21.3011, 21.06, 0.0361336, 25.9624, 0.000100581, 1.51618, 0.0297443
 282.01, 0.922137, 0.132462, 307.13, 283.493, 21.3429, 21.0806, 0.0359846, 25.7836, 8.67108e-05, 1.33742, 0.0298474
 288.01, 0.742758, 0.106695, 307.417, 285.445, 21.3871, 21.1029, 0.0358351, 25.6043, 7.38895e-05, 1.15807, 0.0299123
 294.01, 0.563132, 0.0808923, 307.527, 290.115, 21.4339, 21.127, 0.0356854, 25.4247, 6.19993e-05, 0.978469, 0.0299516
 300.01, 0.383522, 0.0550918, 307.588, 297.504, 21.4832, 21.1529, 0.0355358, 25.245, 5.09209e-05, 0.798852, 0.0298795
 306.01, 0.205201, 0.0294766, 307.391, 303.705, 21.535, 21.1807, 0.0353871, 25.0666, 4.05358e-05, 0.620432, 0.0294257
 312.01, 0.02986, 0.0042893, 309.321, 309.605, 21.5893, 21.2105, 0.0352408, 24.8911, 3.06106e-05, 0.444981, 0.0289298
 318.01,-0.139127,-0.0199852, 313.458, 315.861, 21.6462, 21.2422, 0.0350997, 24.7218, 2.07665e-05, 0.275679, 0.027589
 324.01,-0.293876,-0.0422145, 323.19, 324.161, 21.7056, 21.2758, 0.0349702, 24.5664, 1.06891e-05, 0.120239, 0.0247071
 330.01,-0.40821,-0.0586382, 456.8, 476.744, 21.7675, 21.3115, 0.03487, 24.4461, 0.0000000E+000, 0.0000000E+000, 0.0000000E+000
 336.01,-0.40821,-0.0586382, 541.77, 562.986, 21.8319, 21.3493, 0.03487, 24.4461, 0.0000000E+000, 0.0000000E+000, 0.0000000E+000
 342.01,-0.40821,-0.0586382, 560.466, 581.79, 21.8988, 21.3891, 0.03487, 24.4461, 0.0000000E+000, 0.0000000E+000, 0.0000000E+000
 348.01,-0.40821,-0.0586382, 570.205, 591.589, 21.9682, 21.4311, 0.03487, 24.4461, 0.0000000E+000, 0.0000000E+000, 0.0000000E+000
 354.01,-0.40821,-0.0586382, 576.551, 597.96, 22.0401, 21.4751, 0.03487, 24.4461, 0.0000000E+000, 0.0000000E+000, 0.0000000E+000
 360.01,-0.40821,-0.0586382, 581.099, 602.542, 22.1145, 21.5213, 0.03487, 24.4461, 0.0000000E+000, 0.0000000E+000, 0.0000000E+000
 366.01,-0.40821,-0.0586382, 584.618, 606.065, 22.1913, 21.5696, 0.03487, 24.4461, 0.0000000E+000, 0.0000000E+000, 0.0000000E+000
 372.01,-0.40821,-0.0586382, 587.435, 608.9, 22.2707, 21.6201, 0.03487, 24.4461, 0.0000000E+000, 0.0000000E+000, 0.0000000E+000
 378.01,-0.40821,-0.0586382, 589.758, 611.237, 22.3526, 21.6728, 0.03487, 24.4461, 0.0000000E+000, 0.0000000E+000, 0.0000000E+000
 384.01,-0.40821,-0.0586382, 591.728, 613.217, 22.4373, 21.7278, 0.03487, 24.4461, 0.0000000E+000, 0.0000000E+000, 0.0000000E+000
 390.01,-0.40821,-0.0586382, 593.438, 614.927, 22.525, 21.7849, 0.03487, 24.4461, 0.0000000E+000, 0.0000000E+000, 0.0000000E+000
 396.01,-0.40821,-0.0586382, 594.908, 616.42, 22.616, 21.8444, 0.03487, 24.4461, 0.0000000E+000, 0.0000000E+000, 0.0000000E+000
 402.01,-0.40821,-0.0586382, 596.216, 617.745, 22.7109, 21.9063, 0.03487, 24.4461, 0.0000000E+000, 0.0000000E+000, 0.0000000E+000
 408.01,-0.40821,-0.0586382, 597.416, 618.926, 22.8101, 21.9707, 0.03487, 24.4461, 0.0000000E+000, 0.0000000E+000, 0.0000000E+000
 414.01,-0.40821,-0.0586382, 598.473, 619.99, 22.9145, 22.0379, 0.03487, 24.4461, 0.0000000E+000, 0.0000000E+000, 0.0000000E+000
 420.01,-0.40821,-0.0586382, 599.437, 620.958, 23.0246, 22.1079, 0.03487, 24.4461, 0.0000000E+000, 0.0000000E+000, 0.0000000E+000
 426.01,-0.40821,-0.0586382, 600.305, 621.845, 23.1412, 22.1811, 0.03487, 24.4461, 0.0000000E+000, 0.0000000E+000, 0.0000000E+000
 432.01,-0.40821,-0.0586382, 601.109, 622.66, 23.2649, 22.2577, 0.03487, 24.4461, 0.0000000E+000, 0.0000000E+000, 0.0000000E+000
 438.01,-0.40821,-0.0586382, 601.864, 623.411, 23.3964, 22.3381, 0.03487, 24.4461, 0.0000000E+000, 0.0000000E+000, 0.0000000E+000
 444.01,-0.40821,-0.0586382, 602.564, 624.105, 23.5363, 22.4226, 0.03487, 24.4461, 0.0000000E+000, 0.0000000E+000, 0.0000000E+000
 450.01,-0.40821,-0.0586382, 603.192, 624.756, 23.685, 22.5115, 0.03487, 24.4461, 0.0000000E+000, 0.0000000E+000, 0.0000000E+000
 456.01,-0.40821,-0.0586382, 603.806, 625.361, 23.8429, 22.6052, 0.03487, 24.4461, 0.0000000E+000, 0.0000000E+000, 0.0000000E+000
 462.01,-0.40821,-0.0586382, 604.381, 625.926, 24.0104, 22.704, 0.03487, 24.4461, 0.0000000E+000, 0.0000000E+000, 0.0000000E+000
 468.01,-0.40821,-0.0586382, 604.897, 626.461, 24.1876, 22.8083, 0.03487, 24.4461, 0.0000000E+000, 0.0000000E+000, 0.0000000E+000
 474.01,-0.40821,-0.0586382, 605.411, 626.962, 24.3749, 22.9185, 0.03487, 24.4461, 0.0000000E+000, 0.0000000E+000, 0.0000000E+000
 480.01,-0.40821,-0.0586382, 605.872, 627.441, 24.5722, 23.0347, 0.03487, 24.4461, 0.0000000E+000, 0.0000000E+000, 0.0000000E+000
 486.01,-0.40821,-0.0586382, 606.334, 627.888, 24.7797, 23.1574, 0.03487, 24.4461, 0.0000000E+000, 0.0000000E+000, 0.0000000E+000
 492.01,-0.40821,-0.0586382, 606.747, 628.315, 24.9975, 23.2868, 0.03487, 24.4461, 0.0000000E+000, 0.0000000E+000, 0.0000000E+000
 498.01,-0.40821,-0.0586382, 607.141, 628.724, 25.2254, 23.4232, 0.03487, 24.4461, 0.0000000E+000, 0.0000000E+000, 0.0000000E+000
 500,-0.40821,-0.0586382, 607.286, 628.854, 25.3034, 23.4701, 0.03487, 24.4461, 0.0000000E+000, 0.0000000E+000, 0.0000000E+000