File: PMMA/Validation_Results/UMD-FSRI/UMD-FSRI_Gasification_q50_MLR_R5.csv
Time,MLR
[s],[g/m2/s]
0,0.0000
2,0.0000
4,0.0004
6,0.0111
8,0.1067
10,0.6125
12,1.8189
14,2.0015
16,1.4294
18,1.1889
20,1.0563
22,1.1095
24,1.0510
26,1.1619
28,1.4101
30,1.9572
32,2.6935
34,3.7026
36,4.8838
38,5.8120
40,6.8930
42,7.2161
44,8.6938
46,9.1366
48,9.6574
50,10.3277
52,10.7870
54,12.2126
56,12.1012
58,11.9002
60,13.4381
62,13.6446
64,13.5336
66,13.1672
68,14.1026
70,13.3425
72,13.6783
74,14.4862
76,14.0611
78,15.5280
80,14.6843
82,15.3659
84,15.2358
86,15.1201
88,15.4752
90,14.7195
92,16.0312
94,15.7792
96,16.2743
98,16.3464
100,17.2036
102,16.5766
104,17.5452
106,17.6763
108,16.6376
110,16.6036
112,16.4391
114,17.3584
116,16.1365
118,16.9626
120,18.0476
122,17.3815
124,18.2736
126,18.1236
128,18.1216
130,18.0805
132,17.9418
134,18.9572
136,17.8167
138,18.6721
140,18.4244
142,18.4795
144,18.9183
146,18.8120
148,18.4917
150,18.5658
152,19.4280
154,19.4913
156,17.7406
158,19.7573
160,18.3281
162,18.9987
164,19.1295
166,19.0221
168,19.3397
170,18.9730
172,19.1008
174,19.7109
176,20.0654
178,20.9537
180,20.0392
182,20.4100
184,20.1641
186,20.8921
188,20.2016
190,20.0929
192,19.8687
194,20.8563
196,19.8202
198,19.8216
200,20.4683
202,19.6347
204,21.0196
206,21.1081
208,20.8326
210,21.3227
212,20.6060
214,21.2443
216,21.3099
218,22.2082
220,21.3362
222,20.4905
224,20.9662
226,20.3923
228,20.9602
230,22.4074
232,22.8024
234,21.7552
236,21.8844
238,20.7702
240,21.7654
242,22.2072
244,21.1662
246,22.3627
248,20.9557
250,21.0218
252,22.2765
254,21.9680
256,22.3913
258,21.3229
260,21.9405
262,22.7582
264,23.1125
266,21.3166
268,23.4038
270,24.3264
272,22.8017
274,22.7766
276,23.5008
278,24.8892
280,23.6108
282,22.3249
284,23.7558
286,24.0097
288,24.0640
290,23.9756
292,24.1497
294,24.5283
296,24.7525
298,24.6344
300,24.0072
302,25.1243
304,25.5681
306,24.5612
308,25.1362
310,25.1354
312,25.4271
314,24.6110
316,25.7056
318,25.4783
320,25.9429
322,26.9643
324,27.0928
326,27.9396
328,27.7200
330,27.7719
332,27.8246
334,29.0273
336,28.5531
338,29.0705
340,29.1490
342,27.8181
344,29.8433
346,30.0646
348,29.5751
350,30.7649
352,31.0008
354,29.7265
356,31.2447
358,30.3468
360,31.0721
362,31.0996
364,30.4777
366,30.6935
368,30.9566
370,29.7697
372,28.5837
374,27.9992
376,26.7860
378,22.6826
380,21.7188
382,20.1476
384,15.2312
386,0.0001
388,0.0000
390,0.0000
392,0.0000
394,0.0000
396,0.0000
398,0.0000
400,0.0000
402,0.0000
404,0.0000
406,0.0000
408,0.0000
410,0.0000
412,0.0000
414,0.0000
416,0.0000
418,0.0000
420,0.0000
422,0.0000
424,0.0000
426,0.0000
428,0.0000
430,0.0000
432,0.0000
434,0.0000
436,0.0000
438,0.0000
440,0.0000
442,0.0000
444,0.0000
446,0.0000
448,0.0000
450,0.0000