File: PMMA/Validation_Results/UMD-FSRI/UMD-FSRI_Gasification_q50_Temp_R3.csv
Time,T_back
[s],[K]
0,293.00
2,293.00
4,293.00
6,293.00
8,293.00
10,293.02
12,293.06
14,293.16
16,293.33
18,293.61
20,294.01
22,294.52
24,295.17
26,295.93
28,296.82
30,297.83
32,298.94
34,300.15
36,301.45
38,302.84
40,304.30
42,305.83
44,307.42
46,309.07
48,310.76
50,312.50
52,314.27
54,316.07
56,317.89
58,319.74
60,321.61
62,323.49
64,325.39
66,327.29
68,329.20
70,331.12
72,333.04
74,334.96
76,336.88
78,338.80
80,340.72
82,342.63
84,344.54
86,346.45
88,348.34
90,350.24
92,352.12
94,354.01
96,355.88
98,357.75
100,359.60
102,361.46
104,363.30
106,365.14
108,366.97
110,368.79
112,370.60
114,372.41
116,374.20
118,375.99
120,377.76
122,379.53
124,381.29
126,383.04
128,384.79
130,386.53
132,388.30
134,390.05
136,391.77
138,393.50
140,395.21
142,396.92
144,398.63
146,400.33
148,402.03
150,403.73
152,405.43
154,407.13
156,408.82
158,410.51
160,412.20
162,413.87
164,415.55
166,417.22
168,418.89
170,420.55
172,422.22
174,423.88
176,425.55
178,427.21
180,428.87
182,430.53
184,432.19
186,433.84
188,435.50
190,437.15
192,438.81
194,440.47
196,442.12
198,443.78
200,445.44
202,447.10
204,448.77
206,450.44
208,452.11
210,453.79
212,455.46
214,457.13
216,458.80
218,460.48
220,462.17
222,463.87
224,465.57
226,467.27
228,468.98
230,470.70
232,472.45
234,474.23
236,476.03
238,477.88
240,479.73
242,481.60
244,483.47
246,485.37
248,487.30
250,489.27
252,491.27
254,493.31
256,495.39
258,497.48
260,499.57
262,501.66
264,503.76
266,505.89
268,508.11
270,510.32
272,512.55
274,514.82
276,517.08
278,519.33
280,521.61
282,524.13
284,526.45
286,528.77
288,531.64
290,533.85
292,536.23
294,538.65
296,541.13
298,543.59
300,546.10
302,548.67
304,551.39
306,554.36
308,556.93
310,559.78
312,562.48
314,565.18
316,568.35
318,571.08
320,574.08
322,576.90
324,580.37
326,583.73
328,586.64
330,589.45
332,592.11
334,596.46
336,599.33
338,602.46
340,605.74
342,611.63
344,614.83
346,620.91
348,622.34
350,626.96
352,632.08
354,635.20
356,641.64
358,644.99
360,652.32
362,664.12
364,670.75
366,676.03
368,674.64
370,687.55
372,693.54
374,716.49
376,702.71
378,718.38
380,734.94
382,733.59
384,755.38
386,756.78
388,775.32
390,777.51
392,764.88
394,798.52
396,808.86
398,810.00
400,809.04
402,808.26
404,808.06
406,809.04
408,808.27
410,808.30
412,808.41
414,826.27
416,824.78
418,823.73
420,822.95
422,822.37
424,821.93
426,821.59
428,821.33
430,821.12
432,820.97
434,820.84
436,820.75
438,820.67
440,820.61
442,820.56
444,820.52
446,820.49
448,820.47
450,820.45