File: PMMA/Validation_Results/UMD-FSRI/UMD-FSRI_Gasification_q50_MLR_R4.csv
Time,MLR
[s],[g/m2/s]
0,0
2,0
4,0.0002
6,0.008
8,0.0895
10,0.5313
12,1.7747
14,1.8739
16,1.3941
18,1.2179
20,1.091
22,1.0389
24,1.0479
26,1.2908
28,1.5364
30,1.9244
32,2.4904
34,3.7673
36,4.8237
38,5.6862
40,6.9787
42,8.3548
44,8.9624
46,9.1174
48,9.6347
50,11.2663
52,10.3351
54,11.9008
56,12.0255
58,12.4737
60,12.5198
62,13.0144
64,13.1607
66,13.9431
68,14.5267
70,14.3573
72,14.3112
74,15.813
76,14.0753
78,14.2419
80,15.0265
82,15.5854
84,16.3359
86,15.2744
88,15.634
90,16.2769
92,16.9232
94,15.0744
96,15.4768
98,16.7261
100,17.6049
102,15.999
104,15.6091
106,17.0253
108,17.4732
110,17.6642
112,17.0518
114,16.8283
116,17.2369
118,18.4802
120,17.916
122,17.9366
124,18.0032
126,18.1371
128,17.6709
130,19.3308
132,17.8181
134,18.6626
136,18.6355
138,19.8607
140,18.9597
142,18.8312
144,18.5221
146,19.2037
148,19.3459
150,19.9052
152,20.2253
154,19.0647
156,20.3633
158,20.1942
160,20.1527
162,19.0739
164,19.274
166,20.0701
168,19.6417
170,20.3212
172,20.0782
174,20.883
176,20.3977
178,21.0439
180,20.1974
182,20.1068
184,20.6099
186,21.4024
188,20.2234
190,20.2559
192,20.5194
194,20.9773
196,21.2647
198,21.5361
200,23.1085
202,20.2695
204,20.3121
206,21.5273
208,20.6754
210,21.4092
212,25.316
214,21.403
216,20.4193
218,21.0756
220,21.0424
222,20.7894
224,21.9643
226,21.9708
228,23.3526
230,21.5861
232,21.5485
234,22.0225
236,22.5614
238,23.496
240,23.098
242,23.8792
244,23.1015
246,22.2816
248,23.1351
250,24.2809
252,23.8882
254,23.9574
256,24.2022
258,23.8571
260,22.9197
262,24.5598
264,23.4768
266,23.94
268,25.5397
270,23.72
272,25.4318
274,25.1126
276,25.0782
278,26.1603
280,26.2867
282,25.904
284,27.7041
286,26.2825
288,25.9669
290,26.8478
292,27.4704
294,27.2124
296,27.5595
298,27.439
300,27.1714
302,27.2925
304,27.8655
306,28.9588
308,28.6319
310,29.438
312,29.9795
314,29.8175
316,29.8576
318,30.6469
320,30.2225
322,30.2326
324,30.9828
326,31.3608
328,30.9965
330,31.2821
332,31.2879
334,30.31
336,30.1106
338,29.9555
340,28.8639
342,28.128
344,26.8451
346,24.4418
348,21.7839
350,19.064
352,12.469
354,0
356,0
358,0
360,0
362,0
364,0
366,0
368,0
370,0
372,0
374,0
376,0
378,0
380,0
382,0
384,0
386,0
388,0
390,0
392,0
394,0
396,0
398,0
400,0
402,0
404,0
406,0
408,0
410,0
412,0
414,0
416,0
418,0
420,0
422,0
424,0
426,0
428,0
430,0
432,0
434,0
436,0
438,0
440,0
442,0
444,0
446,0
448,0
450,0