File: PMMA/Validation_Results/UMD-FSRI/UMD-FSRI_Gasification_q50_MLR_R3.csv
Time,MLR
[s],[g/m2/s]
0,0
2,0
4,0.0001
6,0.008
8,0.1159
10,0.5446
12,1.6259
14,2.1418
16,1.3797
18,1.2098
20,1.169
22,1.0307
24,1.0503
26,1.1933
28,1.516
30,1.9057
32,2.4759
34,3.4692
36,4.8579
38,5.7794
40,6.1855
42,7.8307
44,8.5793
46,9.6463
48,10.6823
50,10.8039
52,11.5542
54,11.2789
56,11.9119
58,11.9174
60,12.8892
62,13.0973
64,13.4262
66,13.0964
68,14.0688
70,14.0713
72,14.1956
74,14.2001
76,14.4261
78,15.6823
80,15.0155
82,15.5922
84,15.6696
86,15.6159
88,15.1886
90,15.2288
92,16.3905
94,15.9633
96,16.4493
98,16.2915
100,15.527
102,15.0963
104,17.1648
106,17.1301
108,16.3655
110,17.4673
112,17.4837
114,17.5308
116,17.9416
118,17.1113
120,16.7999
122,17.5954
124,17.9156
126,18.0217
128,18.6842
130,19.5307
132,18.5672
134,18.2619
136,17.7746
138,19.4858
140,18.8349
142,20.1124
144,18.7518
146,18.7181
148,18.1549
150,18.4905
152,19.4836
154,19.0161
156,20.773
158,19.6435
160,19.5396
162,18.9607
164,19.3833
166,20.0742
168,19.8645
170,20.7106
172,19.5307
174,19.2037
176,19.3856
178,21.7241
180,20.1038
182,20.0084
184,20.5516
186,19.9118
188,20.2084
190,21.3746
192,20.7438
194,20.8503
196,21.2993
198,20.5327
200,20.245
202,20.8183
204,21.4359
206,20.8496
208,20.2574
210,21.0989
212,20.6873
214,21.9827
216,21.2927
218,21.8454
220,22.3672
222,21.3372
224,21.9181
226,20.991
228,21.5905
230,21.3448
232,20.9604
234,22.7346
236,21.2207
238,21.0635
240,21.3735
242,22.741
244,22.9197
246,22.8494
248,22.2837
250,23.0849
252,24.363
254,22.3854
256,23.4326
258,23.7728
260,23.1635
262,24.1692
264,23.0116
266,22.9989
268,23.4849
270,24.3401
272,24.0205
274,24.1515
276,24.7739
278,24.5899
280,24.5717
282,24.8923
284,24.3156
286,24.5221
288,25.4737
290,25.6762
292,26.6095
294,25.7936
296,25.6615
298,26.0736
300,26.7583
302,26.8349
304,26.2944
306,27.2627
308,28.4719
310,27.133
312,28.0733
314,27.6989
316,27.3762
318,27.3816
320,28.0607
322,28.9423
324,30.1277
326,29.4161
328,29.7994
330,29.8954
332,30.1418
334,29.7986
336,30.2941
338,30.387
340,31.2501
342,31.4
344,31.4139
346,30.3943
348,30.1306
350,29.9628
352,29.7614
354,29.3034
356,27.1366
358,27.1996
360,23.2236
362,21.0131
364,18.7528
366,9.369
368,0
370,0
372,0
374,0
376,0
378,0
380,0
382,0
384,0
386,0
388,0
390,0
392,0
394,0
396,0
398,0
400,0
402,0
404,0
406,0
408,0
410,0
412,0
414,0
416,0
418,0
420,0
422,0
424,0
426,0
428,0
430,0
432,0
434,0
436,0
438,0
440,0
442,0
444,0
446,0
448,0
450,0