File: Non-charring/PMMA/UClan/UClan_Cone_25KW.csv
Time,Sample Mass,HRR,Back Surface Temperature
[s],[g],[kW],[K]
0,74.12,1.53026E-09,314.15
4,74.2,0.002575261,316.15
8,74.1899,0.012293,316.65
12,74.1699,0.0126526,316.65
16,74.1899,0.008881113,317.65
20,74.1899,0.01593339,318.65
24,74.16,0.021749,319.65
28,74.14,0.0211879,320.15
32,74.15,0.008503562,321.15
36,74.14,-0.004692728,322.15
40,74.14,0.002089159,322.65
44,74.14,0.000284055,323.65
48,74.14,-0.008595704,325.15
52,74.13,-0.0128323,327.15
56,74.13,-0.01499718,326.15
60,74.12,-0.004964784,328.15
64,74.12,0.002544757,328.65
68,74.12,0.003928318,329.15
72,74.12,0.004175853,330.15
76,74.0699,0.007737969,331.15
80,74.0699,0.0158969,331.65
84,74.08,0.004122801,332.15
88,74.1,0.001281737,333.65
92,74.0499,0.00075436,334.65
96,74.0699,0.000695081,336.15
100,74.0699,-0.002100607,337.65
104,74.04,-0.003017694,338.65
108,74.01,-0.00302813,341.15
112,73.97,0.004023369,342.65
116,73.9399,0.0110567,344.65
120,73.8201,0.0654799,346.15
124,73.6501,0.344762,348.15
128,73.3102,0.995573,350.15
132,72.9503,1.59183,352.15
136,72.5105,2.06356,354.65
140,72.0605,2.31143,357.65
144,71.6407,2.46229,360.15
148,71.1509,2.59619,362.65
152,70.751,2.53638,364.15
156,70.2811,2.66903,367.15
160,69.8312,2.67888,369.15
164,69.3713,2.67132,371.15
168,68.9015,2.6822,374.65
172,68.4117,2.78735,376.15
176,67.9218,2.82636,378.15
180,67.412,2.80781,380.15
184,66.9821,2.83839,381.65
188,66.4822,2.8813,383.65
192,65.9923,2.75266,385.15
196,65.5024,2.92287,386.65
200,64.9626,2.98222,389.65
204,64.4628,2.98835,391.65
208,63.9629,2.94935,392.65
212,63.4131,2.98933,395.15
216,62.8633,2.97489,397.65
220,62.3934,3.0576,399.15
224,61.8535,3.1419,401.15
228,61.3436,3.1245,403.65
232,60.8138,3.13542,405.15
236,60.234,3.17874,407.65
240,59.6642,3.31321,409.15
244,59.1244,3.36519,411.65
248,58.5645,3.30161,412.15
252,57.9746,3.38941,415.65
256,58.5745,3.32128,417.15
260,57.8748,3.37321,419.15
264,57.3749,3.39964,420.15
268,56.795,3.50376,422.15
272,56.1952,3.55022,424.15
276,55.6154,3.63019,426.15
280,54.9855,3.72875,427.65
284,54.3857,3.57262,429.65
288,53.7759,3.63323,431.65
292,53.1561,3.62971,433.15
296,52.4762,3.72913,436.15
300,51.8164,3.83664,437.65
304,51.0967,3.90042,439.65
308,50.5369,3.79223,441.15
312,49.887,3.80326,443.65
316,49.2772,3.82687,446.15
320,48.5874,3.87378,447.15
324,47.9275,3.81833,449.65
328,47.2178,3.96449,450.65
332,46.6079,3.92462,453.65
336,45.9581,3.93807,454.65
340,45.2584,3.98627,456.65
344,44.5985,4.00089,459.15
348,43.9487,3.87853,461.15
352,43.2889,3.98183,463.15
356,42.5692,4.02886,465.65
360,41.9293,4.01664,467.15
364,41.1895,3.97965,470.65
368,40.5797,3.96549,471.65
372,39.8699,4.09669,475.15
376,39.2501,4.06239,477.65
380,38.6202,4.00142,479.65
384,37.9405,4.22169,482.15
388,37.2007,4.27929,484.15
392,36.4609,4.29592,487.15
396,35.7711,4.32153,489.65
400,35.03125,4.28767,492.65
404,34.3015,4.45787,495.15
408,33.5917,4.38745,498.65
412,32.882,4.46439,502.15
416,32.2021,4.42054,505.65
420,31.5323,4.40632,509.15
424,30.8525,4.18238,512.65
428,30.1927,4.11653,517.15
432,29.4629,4.34348,520.65
436,28.7131,4.22567,525.15
440,27.9733,4.38395,529.15
444,25.9439,4.21416,533.65
448,26.6537,4.36654,538.15
452,25.8439,4.39226,542.65
456,25.1241,4.39971,548.15
460,24.4244,4.42859,554.65
464,23.6646,4.67743,561.15
468,22.095,4.66161,568.65
472,21.3752,4.56684,574.65
476,20.7454,4.28513,582.15
480,20.0556,4.37792,587.15
484,19.4558,4.18106,593.15
488,18.856,3.99111,598.15
492,18.3661,3.78555,604.15
496,17.8163,3.68016,608.15
500,17.2765,3.58124,612.65
504,16.8166,3.29081,617.65
508,16.4167,3.07943,621.15
512,15.9968,2.98108,625.15
516,15.587,2.92239,630.15
520,15.197,2.81584,638.65
524,14.8671,2.62779,647.65
528,14.5073,2.5428,658.15
532,14.1273,2.4731,674.65
536,13.8474,2.34156,700.15
540,13.5375,2.25382,734.65
544,13.1876,2.24671,777.15
548,12.9077,2.25821,808.15
552,12.6677,2.10104,835.15
556,12.3879,2.03192,853.15
560,12.1179,1.98694,880.65
564,11.828,1.97229,888.15
568,11.618,1.90771,895.65
572,11.3881,1.79668,905.65
576,11.1582,1.78107,916.15
580,10.9383,1.73374,924.15
584,10.7583,1.621,935.15
588,10.5084,1.56273,948.65
592,10.3684,1.53489,945.15
596,10.1785,1.51926,935.65
600,10.0186,1.50482,931.15
604,9.79858,1.44927,926.15
608,9.56866,1.46522,919.65
612,9.43872,1.4262,919.65
616,9.29871,1.40468,915.15
620,9.12878,1.38572,905.65
624,8.90881,1.33253,890.65
628,8.79889,1.34774,874.15
632,8.59894,1.35029,857.65
636,8.43896,1.34322,843.65
640,8.289,1.29935,831.15
644,8.14911,1.30668,817.15
648,7.99915,1.30154,805.65
652,7.83917,1.26688,798.15
656,7.72919,1.25213,792.65
660,7.53925,1.26749,779.65
664,7.39929,1.24501,768.65
668,7.26935,1.22801,763.15
672,7.01941,1.24597,753.65
676,6.89948,1.22444,746.65
680,6.80945,1.21663,738.65
684,6.68951,1.19342,733.15
688,6.48956,1.17612,730.15
692,6.38959,1.18841,726.15
696,6.22961,1.19598,724.15
700,6.09967,1.14564,715.15
704,5.99969,1.14535,709.65
708,5.83978,1.11584,707.15
712,5.74976,1.10404,704.65
716,5.59979,1.10231,702.65
720,5.42987,1.0758,701.65
724,5.36987,1.08246,699.15
728,5.19995,1.07174,700.15
732,5.13995,1.03078,697.65
736,5.01001,1.00346,694.15
740,4.92999,1.0144,689.15
744,4.78009,1.02581,684.65
748,4.62012,1.01693,682.65
752,4.52014,1.00546,684.15
756,4.3902,0.985811,678.65
760,4.3302,0.951484,675.65
764,4.21021,0.942281,671.15
768,4.10022,0.935409,671.15
772,3.9903,0.93123,670.15
776,3.91028,0.90794,666.15
780,3.70038,0.887311,663.15
784,3.60034,0.883858,659.65
788,3.59039,0.861683,656.65
792,3.51044,0.852036,654.15
796,3.4104,0.854441,653.65
800,3.3205,0.8243,652.15
804,3.24048,0.808219,650.15
808,3.10052,0.784113,649.15
812,3.02057,0.766159,647.15
816,3.01056,0.745855,646.15
820,2.90063,0.726006,646.65
824,2.87061,0.70675,646.15
828,2.71069,0.696976,646.65
832,2.70068,0.663171,644.65
836,2.66064,0.669395,643.15
840,2.62067,0.655543,642.15
844,-0.12854,0.648413,640.65
848,3.2605,0.642399,640.15
852,3.2605,0.623516,638.65
856,3.19049,0.629626,637.65
860,3.10052,0.628827,636.15
864,3.05054,0.614555,634.65
868,2.98053,0.610512,632.65
872,2.96057,0.592804,632.65
876,2.90063,0.589275,630.15
880,2.84064,0.567046,630.15
884,2.81061,0.562071,629.15
888,2.70068,0.564433,626.65
892,2.68066,0.556494,625.65
896,2.64069,0.56482,627.65
900,2.52075,0.557616,628.15
904,2.51074,0.554966,626.65
908,2.52075,0.554668,625.15
912,2.42072,0.550474,624.15
916,2.41071,0.52532,622.65
920,2.32074,0.51768,624.15
924,2.28082,0.515844,623.15
928,2.24078,0.496272,624.15
932,2.17078,0.490225,622.15
936,2.18079,0.477783,620.15
940,2.15082,0.46617,619.15
944,2.09088,0.456169,618.15
948,2.06085,0.447413,618.15
952,2.01086,0.443568,618.15
956,1.95087,0.433953,617.65
960,1.92084,0.418378,618.65
964,1.89087,0.405058,618.65
968,1.92084,0.404365,619.15
972,1.82092,0.397746,619.65
976,1.85089,0.38816,618.15
980,1.81091,0.403326,617.65
984,1.71094,0.39706,615.65
988,1.75092,0.397786,614.15
992,1.74091,0.394425,615.65
996,1.64099,0.382984,615.65
1000,1.67096,0.36986,615.15
1004,1.68091,0.347256,614.15
1008,1.62097,0.322512,613.15
1012,1.63098,0.323785,610.65
1016,1.62097,0.317666,610.65
1020,1.56097,0.307159,610.15
1024,1.521,0.304214,608.15
1028,1.47095,0.302431,610.15
1032,1.521,0.305737,611.65
1036,1.53101,0.305228,612.65
1040,1.51099,0.297061,611.65
1044,1.45105,0.295488,611.65
1048,1.49097,0.286298,610.65
1052,1.47095,0.276156,609.65
1056,1.43103,0.264244,609.65
1060,1.43103,0.267519,609.15
1064,1.39105,0.265775,608.15
1068,1.41101,0.26826,607.15
1072,1.40106,0.25496,608.15
1076,1.42102,0.253202,609.65
1080,1.35101,0.251496,610.15
1084,1.36102,0.250283,609.65
1088,1.32104,0.237408,610.65
1092,1.30103,0.235504,610.15
1096,1.30103,0.250375,608.15
1100,1.30103,0.258148,609.15
1104,1.2511,0.250161,607.15
1108,1.2511,0.245295,608.15
1112,1.22107,0.241884,608.15
1116,1.1311,0.239008,608.15
1120,1.26105,0.235533,607.15
1122,1.22107,0.234862,607.15