File: Non-charring/PMMA/UClan/UClan_Cone_65kW.csv
Time,Sample Mass,HRR,Back Surface Temperature,
[s],[g],[kW m-2],[K],
0,71.12,1.61E-07,323.65,
2,71.2,0.263535,,
4,71.1699,0.368965,,
6,71.1599,0.421286,,
8,71.1699,0.442209,,
10,71.1699,0.348698,,
12,71.0399,2.36251,,
14,70.8201,25.4142,,
16,70.5002,85.805,,
18,70.0303,178.858,,
20,69.7603,251.669,,
22,69.3805,336.47,,
24,68.9005,389.826,,
26,68.5007,452.738,,
28,68.0109,497.036,,
30,67.571,547.367,332.15,
32,67.1012,590.839,,
34,66.6013,598.454,,
36,66.1514,604.082,,
38,65.6316,599.624,,
40,65.1516,650.939,,
42,64.6119,650.458,,
44,64.142,651.585,,
46,63.6821,673.944,,
48,63.1823,657.029,,
50,62.6624,667.466,,
52,62.1625,673.102,,
54,61.6328,656.541,,
56,61.1729,643.808,,
58,60.623,649.501,,
60,60.1631,685.364,342.15,
62,59.6632,667.844,,
64,59.1934,682.464,,
66,58.5836,705.161,,
68,58.0337,674.426,,
70,57.5939,703.115,,
72,57.104,693.238,,
74,56.5942,723.4,,
76,56.0243,687.476,,
78,55.4945,681.39,,
80,55.0046,678.501,,
82,54.4648,707.562,,
84,53.8949,728.713,,
86,53.415,695,,
88,52.8452,730.603,,
90,52.3354,704.746,353.65,
92,51.8256,720.755,,
94,51.1957,744.396,,
96,50.7258,715.978,,
98,50.196,717.156,,
100,49.6661,727.549,,
102,49.1663,718.26,,
104,48.6066,725.355,,
106,48.0266,741.872,,
108,47.4368,706.048,,
110,46.917,717.468,,
112,46.3271,760.341,,
114,45.8073,756.631,,
116,45.2175,722.909,,
118,44.6476,778.474,,
120,44.0778,751.889,378.15,
122,43.528,786.043,,
124,42.8881,770.293,,
126,42.3383,801.318,,
128,41.6785,768.203,,
130,41.1087,771.104,,
132,40.5588,806.716,,
134,39.8491,817.668,,
136,42.8781,783.906,,
138,47.4568,856.056,,
140,46.817,818.977,,
142,45.9872,822.432,,
144,45.3174,831.113,,
146,44.3477,853.789,,
148,43.0981,890.895,,
150,34.4406,849.217,405.65,
152,33.7308,932.891,,
154,33.061,916.76,,
156,32.3712,869.504,,
158,31.7214,922.599,,
160,30.9716,938.182,,
162,30.2618,905.803,,
164,29.5519,966.044,,
166,28.8222,908.992,,
168,28.1524,979.641,,
170,27.4626,933.696,,
172,26.7628,976.716,,
174,26.063,954.405,,
176,25.3832,964.168,,
178,24.6635,977.809,,
180,23.9436,965.672,436.15,
182,23.2138,901.461,,
184,22.4741,926.436,,
186,21.7343,965.08,,
188,20.9545,1010.53,,
190,20.2247,1018.57,,
192,19.4349,996.065,,
194,18.6851,963.049,,
196,17.9254,1027.79,,
198,17.0856,1088.4,,
200,16.3358,1006.51,,
202,15.5361,1065.99,,
204,14.8262,1099.51,,
206,14.1964,1111.42,,
208,13.5966,1112.96,,
210,13.0867,1108.24,469.65,
212,12.5869,1052.17,,
214,12.227,991.749,,
216,11.8571,867.47,,
218,11.4772,787.474,,
220,11.0974,711.933,,
222,10.8274,654.565,,
224,10.4975,619.445,,
226,10.1576,545.147,,
228,9.83771,530.725,,
230,9.51776,517.059,,
232,9.17792,482.716,,
234,8.89795,477.426,,
236,8.6181,466.768,,
238,8.34814,461.789,,
240,8.0882,456.385,530.15,
242,7.82825,438.744,,
244,7.55835,447.297,,
246,7.32843,438.623,,
248,7.05847,414.432,,
250,6.90857,406.416,,
252,6.70862,395.112,,
254,6.49866,373.449,,
256,6.30872,359.545,,
258,6.14874,336.452,,
260,5.9588,320.61,,
262,5.77887,307.401,,
264,5.60895,297.404,,
266,5.45898,287.664,,
268,5.33899,279.617,,
270,5.12903,270.278,703.65,
272,4.98914,259.91,,
274,4.82916,259.325,,
276,4.70917,261.724,,
278,4.5592,250.603,,
280,4.43921,258.576,,
282,4.28931,248.292,,
284,4.109375,244.226,,
286,3.98944,243.23,,
288,3.84943,241.505,,
290,3.6795,237.787,,
292,3.53955,233.559,,
294,3.43951,231.929,,
296,3.26959,232.02,,
298,3.16962,231.062,,
300,3.03967,226.203,1003.15,
302,2.92975,228.95,,
304,2.71979,222.295,,
306,2.67981,217.45,,
308,1.61011,212.262,,
310,2.55975,208.357,,
312,2.45984,206.883,,
314,2.36987,199.396,,
316,2.25989,194.465,,
318,2.16992,192.52,,
320,2.05994,189.577,,
322,1.94995,184.376,,
324,1.86005,184.542,,
326,1.78003,184.496,,
328,1.69,183.108,,
330,1.57007,182.428,1087.15,
332,1.4801,178.95,,
334,1.41016,177.745,,
336,1.32013,173.878,,
338,1.24023,171.61,,
340,1.11023,170.943,,
342,1.03027,167.104,,
344,0.940247,164.074,,
346,0.860291,160.614,,
348,0.780334,155.788,,
350,0.700317,151.855,,
352,0.660339,149.542,,
354,0.600403,148.681,,
356,0.530396,146.729,,
358,0.470398,144.898,,
360,0.400452,145.876,1060.65,
362,0.330444,139.167,,
364,0.250427,138.592,,
366,0.220459,130.484,,
368,0.140503,129.577,,
370,0.110535,127.437,,
372,0.0305176,125.233,,
374,-0.01940918,119.6,,
376,-0.109436,116.801,,
378,-0.109436,114.784,,
380,-0.159424,109.948,,
382,-0.109436,106.402,,
384,-0.149414,99.0463,,
386,-0.159424,95.11,,
388,-0.339355,91.9117,,
390,-0.289368,88.0049,994.15,
392,-0.259338,85.4649,,
394,-0.23938,82.0794,,
396,-0.329346,79.0201,,
398,-0.349365,76.2777,,
400,-0.299377,75.1683,,
402,-0.359375,72.9593,,
404,-0.359375,71.2198,,
406,-0.419373,69.0395,,
408,-0.419373,66.306,,
410,-0.399353,64.7549,,
412,-0.479309,63.7455,,
414,-0.399353,61.7481,,
416,-0.439331,59.0129,,
418,-0.479309,58.5152,,
420,-0.479309,56.5315,983.15,
422,-0.44928,56.5411,,
424,-0.45929,54.9136,,
426,-0.45929,53.2912,,
428,-0.479309,51.238,,
430,-0.489319,48.943,,
432,-0.509277,49.0494,,
434,-0.499329,48.9522,,
436,-0.519287,47.7486,,
438,-0.489319,46.7651,,
440,-0.549316,45.3312,,
442,-0.539307,44.1705,,
444,-0.559326,43.2682,,
446,-0.589294,41.9397,,
448,-0.559326,40.5017,,
450,-0.619324,39.7803,927.65,
452,-0.559326,39.0142,,
454,-0.529297,38.2501,,
456,-0.559326,37.2516,,
458,-0.529297,37.0197,,
460,-0.569275,36.9257,,
462,-0.519287,36.662,,
464,-0.549316,35.0708,,
466,-0.579285,33.871,,
468,-0.559326,33.1995,,
470,-0.539307,32.5378,,
472,-0.559326,32.1259,,
474,-0.559326,32.3322,,
476,-0.569275,31.7425,,
478,-0.629272,31.2585,,
480,-0.589294,30.0114,898.65,
482,-0.549316,29.9931,,
484,-0.569275,29.7078,,
486,-0.569275,29.1883,,
488,-0.549316,28.981,,
489,-0.539307,28.9921,,