File: Non-charring/PMMA/LCPP/LCPP_Cone_65kW_3.csv
Time,Mass,HRR,Back Surface Temperature
[s],[g],[kW/m2],[K]
0,N/A,3.64157,303.076
2,N/A,,303.075
4,N/A,,303.099
6,N/A,,303.136
8,N/A,,303.202
10,N/A,4.80093,303.239
12,N/A,,303.293
14,N/A,,303.402
16,N/A,,303.519
18,N/A,,303.659
20,N/A,1.92557,303.843
22,N/A,,304.119
24,N/A,,304.318
26,N/A,,304.863
28,N/A,,305.436
30,N/A,0.754063,306.008
32,N/A,,306.791
34,N/A,,307.617
36,N/A,,308.569
38,N/A,,309.659
40,N/A,-0.454148,310.676
42,N/A,,312.017
44,N/A,,313.373
46,N/A,,314.673
48,N/A,,316.231
50,N/A,-2.01552,317.629
52,N/A,,319.326
54,N/A,,320.903
56,N/A,,322.594
58,N/A,,324.301
60,N/A,-2.79977,326
62,N/A,,327.734
64,N/A,,329.747
66,N/A,,331.586
68,N/A,,333.163
70,N/A,3.06698,335.105
72,N/A,,337.112
74,N/A,,338.828
76,N/A,,340.806
78,N/A,,342.894
80,N/A,8.94567,344.557
82,N/A,,346.631
84,N/A,,348.27
86,N/A,,350.325
88,N/A,,352.14
90,N/A,3.05757,354.15
92,N/A,,355.962
94,N/A,,358.047
96,N/A,,359.837
98,N/A,,361.79
100,N/A,48.3763,363.459
102,N/A,,365.442
104,N/A,,367.192
106,N/A,,369.137
108,N/A,,370.92
110,N/A,257.866,372.818
112,N/A,,374.551
114,N/A,,376.383
116,N/A,,378.131
118,N/A,,379.767
120,N/A,339.331,381.235
122,N/A,,382.803
124,N/A,,384.081
126,N/A,,385.713
128,N/A,,387.2
130,N/A,383.847,388.872
132,N/A,,390.599
134,N/A,,392.648
136,N/A,,394.794
138,N/A,,396.954
140,N/A,393.327,398.92
142,N/A,,401.123
144,N/A,,403.075
146,N/A,,405.044
148,N/A,,407.143
150,N/A,395.527,409.225
152,N/A,,411.27
154,N/A,,413.129
156,N/A,,414.976
158,N/A,,416.901
160,N/A,395.869,418.773
162,N/A,,420.477
164,N/A,,422.324
166,N/A,,424.155
168,N/A,,425.838
170,N/A,420.574,427.621
172,N/A,,429.179
174,N/A,,430.898
176,N/A,,432.584
178,N/A,,433.803
180,N/A,421.124,434.9
182,N/A,,435.842
184,N/A,,436.923
186,N/A,,438.178
188,N/A,,439.326
190,N/A,425.979,440.632
192,N/A,,441.874
194,N/A,,443.336
196,N/A,,444.631
198,N/A,,446.053
200,N/A,427.053,447.141
202,N/A,,448.211
204,N/A,,449.412
206,N/A,,450.467
208,N/A,,451.614
210,N/A,437.053,452.934
212,N/A,,454.248
214,N/A,,455.612
216,N/A,,456.954
218,N/A,,458.479
220,N/A,447.042,460.119
222,N/A,,461.73
224,N/A,,463.541
226,N/A,,465.32
228,N/A,,467.038
230,N/A,452.608,468.998
232,N/A,,470.957
234,N/A,,472.895
236,N/A,,475.001
238,N/A,,476.957
240,N/A,481.448,479.062
242,N/A,,480.954
244,N/A,,483.149
246,N/A,,485.259
248,N/A,,487.286
250,N/A,505.475,489.431
252,N/A,,491.502
254,N/A,,493.796
256,N/A,,495.791
258,N/A,,497.948
260,N/A,495.777,499.997
262,N/A,,502.251
264,N/A,,504.42
266,N/A,,506.364
268,N/A,,508.473
270,N/A,522.944,510.355
272,N/A,,512.286
274,N/A,,514.185
276,N/A,,515.959
278,N/A,,517.84
280,N/A,527.452,519.674
282,N/A,,521.325
284,N/A,,523.177
286,N/A,,525.052
288,N/A,,526.739
290,N/A,563.802,528.546
292,N/A,,530.217
294,N/A,,532.063
296,N/A,,533.738
298,N/A,,535.499
300,N/A,565.404,537.283
302,N/A,,538.968
304,N/A,,540.646
306,N/A,,542.427
308,N/A,,544.259
310,N/A,577.81,545.92
312,N/A,,547.777
314,N/A,,549.639
316,N/A,,551.342
318,N/A,,553.248
320,N/A,570.687,555.05
322,N/A,,556.992
324,N/A,,558.865
326,N/A,,560.643
328,N/A,,562.596
330,N/A,592.175,564.411
332,N/A,,566.373
334,N/A,,568.331
336,N/A,,570.161
338,N/A,,572.159
340,N/A,593.316,573.983
342,N/A,,575.947
344,N/A,,577.704
346,N/A,,579.764
348,N/A,,581.661
350,N/A,620.096,583.614
352,N/A,,585.594
354,N/A,,587.77
356,N/A,,589.777
358,N/A,,591.861
360,N/A,643.666,594.093
362,N/A,,596.272
364,N/A,,598.589
366,N/A,,601.265
368,N/A,,603.708
370,N/A,638.614,606.533
372,N/A,,609.408
374,N/A,,612.522
376,N/A,,615.598
378,N/A,,619.188
380,N/A,642.986,622.776
382,N/A,,627.194
384,N/A,,632.164
386,N/A,,638.439
388,N/A,,646.005
390,N/A,617.523,656.749
392,N/A,,672.301
394,N/A,,690.82
396,N/A,,711.389
398,N/A,,738.037
400,N/A,600.89,779.173
402,N/A,,821.969
404,N/A,,853.756
406,N/A,,899.641
408,N/A,,933.232
410,N/A,553.086,965.294
412,N/A,,994.755
414,N/A,,1002.336
416,N/A,,1033.893
418,N/A,,1042.728
420,N/A,499.074,1061.95
422,N/A,,1086.582
424,N/A,,1104.112
426,N/A,,1110.266
428,N/A,,1125.372
430,N/A,466.813,1133.742
432,N/A,,1112.226
434,N/A,,1023.838
436,N/A,,953.786
438,N/A,,840.266
440,N/A,361.756,776.653
442,N/A,,720.574
444,N/A,,677.549
446,N/A,,636.921
448,N/A,,601.977
450,N/A,190.047,573.351
452,N/A,,546.087
454,N/A,,524.349
456,N/A,,503.304
458,N/A,,484.671
460,N/A,78.4325,465.211
462,N/A,,448.462
464,N/A,,434.866
466,N/A,,421.665
468,N/A,,410.062
470,N/A,10.8981,400.552
472,N/A,,391.157
474,N/A,,383.362
476,N/A,,375.778
478,N/A,,369.411
480,N/A,2.83274,363.192
482,N/A,,357.992
484,N/A,,352.892
486,N/A,,348.26
488,N/A,,344.269
490,N/A,1.57643,340.34
492,N/A,,336.924
494,N/A,,333.972
496,N/A,,331.04
498,N/A,,328.57
500,N/A,3.60057,326.218