File: PMMA/Validation_Results/EDF/EDF_Gasification_q50_MassLossRate.csv
Time,MLR
[s],[g/s/m2]
0.00,0.00
2.04,0.00
4.11,0.00
6.15,0.00
8.20,0.00
10.28,0.00
12.36,0.00
14.39,0.00
16.48,0.00
18.50,0.00
20.59,0.01
22.66,0.03
24.73,0.09
26.85,0.20
28.87,0.41
30.95,0.80
33.08,1.42
35.09,2.23
37.16,3.25
39.28,4.36
41.44,5.48
43.48,6.45
45.56,7.32
47.68,8.10
49.85,8.79
51.95,9.38
53.95,9.87
55.95,10.32
57.95,10.73
59.95,11.11
61.95,11.46
63.95,11.78
66.15,12.12
68.35,12.44
70.55,12.74
72.75,13.02
74.95,13.29
77.15,13.55
79.35,13.81
81.55,14.05
83.75,14.29
85.95,14.52
88.15,14.74
90.35,14.96
92.55,15.18
94.75,15.39
96.95,15.60
99.15,15.81
101.35,16.01
103.55,16.21
105.75,16.41
107.95,16.61
110.15,16.80
112.35,16.99
114.55,17.19
116.75,17.38
118.95,17.57
121.15,17.76
123.35,17.95
125.55,18.14
127.75,18.32
129.95,18.51
132.15,18.70
134.35,18.89
136.55,19.08
138.75,19.26
140.95,19.45
143.15,19.64
145.35,19.83
147.55,20.03
149.75,20.22
151.95,20.41
154.15,20.61
156.35,20.80
158.55,21.00
160.75,21.20
162.95,21.41
165.15,21.61
167.35,21.82
169.55,22.03
171.75,22.24
173.95,22.46
176.15,22.68
178.35,22.90
180.55,23.12
182.75,23.35
184.95,23.58
187.15,23.81
189.35,24.05
191.55,24.28
193.75,24.52
195.95,24.75
198.15,24.99
200.35,25.22
202.55,25.44
204.75,25.66
206.95,25.88
209.15,26.08
211.35,26.28
213.55,26.46
215.75,26.64
217.95,26.80
220.15,26.96
222.35,27.10
224.55,27.23
226.75,27.34
228.95,27.45
231.15,27.54
233.35,27.63
235.55,27.71
237.75,27.77
239.95,27.84
242.15,27.89
244.35,27.94
246.55,27.99
248.75,28.03
250.95,28.07
253.15,28.11
255.35,28.14
257.35,28.17
259.35,28.19
261.35,28.22
263.35,28.24
265.35,28.26
267.35,28.28
269.35,28.30
271.35,28.32
273.35,28.33
275.35,28.34
277.35,28.35
279.35,28.35
281.35,28.35
283.35,28.34
285.35,28.33
287.35,28.31
289.35,28.28
291.35,28.24
293.35,28.19
295.35,28.12
297.35,28.05
299.35,27.95
301.35,27.84
303.35,27.70
305.35,27.55
307.35,27.36
309.35,27.15
311.35,26.90
313.35,26.61
315.35,26.29
317.35,25.92
319.35,25.51
321.35,25.05
323.35,24.53
325.35,23.96
327.35,23.33
329.35,22.65
331.35,21.92
333.35,21.13
335.35,20.29
337.35,19.41
339.35,18.49
341.35,17.55
343.35,16.58
345.35,15.60
347.35,14.61
349.35,13.63
351.35,12.67
353.35,11.72
355.35,10.81
357.35,9.93
359.35,9.09
361.35,8.29
363.35,7.54
365.35,6.84
367.35,6.18
369.35,5.58
371.35,5.02
373.35,4.51
375.35,4.04
377.35,3.62
379.35,3.24
381.35,2.89
383.35,2.58
385.35,2.30
387.35,2.05
389.35,1.82
391.35,1.62
393.35,1.44
395.35,1.28
397.35,1.14
399.35,1.01
401.35,0.90
403.35,0.80
405.35,0.71
407.35,0.63
409.35,0.56
411.35,0.50
413.35,0.44
415.35,0.40
417.35,0.35
419.35,0.31
421.35,0.28
423.35,0.25
425.35,0.22
427.35,0.20