File: PMMA/Validation_Results/EDF/EDF_Gasification_q50_Mass.csv
Time,Mass
[s],[g]
0.00,26.80
2.04,26.80
4.11,26.80
6.15,26.80
8.20,26.80
10.28,26.80
12.36,26.80
14.39,26.80
16.48,26.80
18.50,26.80
20.59,26.80
22.66,26.80
24.73,26.80
26.85,26.80
28.87,26.80
30.95,26.79
33.08,26.78
35.09,26.77
37.16,26.75
39.28,26.72
41.44,26.68
43.48,26.63
45.56,26.57
47.68,26.51
49.85,26.44
51.95,26.37
53.95,26.29
55.95,26.22
57.95,26.13
59.95,26.05
61.95,25.96
63.95,25.87
66.15,25.77
68.35,25.67
70.55,25.56
72.75,25.45
74.95,25.34
77.15,25.23
79.35,25.11
81.55,24.99
83.75,24.87
85.95,24.75
88.15,24.63
90.35,24.50
92.55,24.38
94.75,24.25
96.95,24.11
99.15,23.98
101.35,23.85
103.55,23.71
105.75,23.57
107.95,23.43
110.15,23.29
112.35,23.15
114.55,23.00
116.75,22.86
118.95,22.71
121.15,22.56
123.35,22.41
125.55,22.26
127.75,22.10
129.95,21.94
132.15,21.79
134.35,21.63
136.55,21.47
138.75,21.31
140.95,21.14
143.15,20.98
145.35,20.81
147.55,20.64
149.75,20.47
151.95,20.30
154.15,20.12
156.35,19.95
158.55,19.77
160.75,19.59
162.95,19.41
165.15,19.23
167.35,19.05
169.55,18.86
171.75,18.67
173.95,18.48
176.15,18.29
178.35,18.10
180.55,17.90
182.75,17.71
184.95,17.51
187.15,17.31
189.35,17.10
191.55,16.90
193.75,16.69
195.95,16.49
198.15,16.27
200.35,16.06
202.55,15.85
204.75,15.63
206.95,15.41
209.15,15.19
211.35,14.97
213.55,14.75
215.75,14.52
217.95,14.30
220.15,14.07
222.35,13.84
224.55,13.61
226.75,13.38
228.95,13.15
231.15,12.91
233.35,12.68
235.55,12.45
237.75,12.21
239.95,11.97
242.15,11.74
244.35,11.50
246.55,11.27
248.75,11.03
250.95,10.79
253.15,10.55
255.35,10.31
257.35,10.10
259.35,9.88
261.35,9.66
263.35,9.45
265.35,9.23
267.35,9.01
269.35,8.79
271.35,8.57
273.35,8.36
275.35,8.14
277.35,7.92
279.35,7.70
281.35,7.48
283.35,7.27
285.35,7.05
287.35,6.83
289.35,6.61
291.35,6.39
293.35,6.18
295.35,5.96
297.35,5.74
299.35,5.53
301.35,5.31
303.35,5.10
305.35,4.89
307.35,4.67
309.35,4.46
311.35,4.26
313.35,4.05
315.35,3.85
317.35,3.64
319.35,3.45
321.35,3.25
323.35,3.06
325.35,2.87
327.35,2.69
329.35,2.51
331.35,2.34
333.35,2.18
335.35,2.02
337.35,1.86
339.35,1.72
341.35,1.58
343.35,1.45
345.35,1.32
347.35,1.21
349.35,1.10
351.35,1.00
353.35,0.90
355.35,0.82
357.35,0.74
359.35,0.66
361.35,0.60
363.35,0.53
365.35,0.48
367.35,0.43
369.35,0.38
371.35,0.34
373.35,0.30
375.35,0.27
377.35,0.24
379.35,0.22
381.35,0.19
383.35,0.17
385.35,0.15
387.35,0.14
389.35,0.12
391.35,0.11
393.35,0.10
395.35,0.09
397.35,0.08
399.35,0.07
401.35,0.06
403.35,0.05
405.35,0.05
407.35,0.04
409.35,0.04
411.35,0.03
413.35,0.03
415.35,0.03
417.35,0.02
419.35,0.02
421.35,0.02
423.35,0.02
425.35,0.02
427.35,0.01