File: PMMA/Validation_Results/EDF/EDF_Gasification_q25_Temp.csv
Time,T
[s],[K]
0.00,300.00
4.11,300.00
8.20,300.06
12.36,300.47
16.48,301.62
20.59,303.68
24.73,306.63
28.87,310.36
33.08,314.79
37.16,319.56
41.44,324.95
45.56,330.40
49.85,336.31
53.95,342.07
57.95,347.78
61.95,353.52
66.15,359.58
70.55,365.91
74.95,372.22
79.35,378.49
83.75,384.69
88.15,390.83
92.55,396.90
96.95,402.88
101.35,408.78
105.75,414.60
110.15,420.32
114.55,425.95
118.95,431.50
123.35,436.95
127.75,442.30
132.15,447.56
136.55,452.73
140.95,457.79
145.35,462.76
149.75,467.63
154.15,472.39
158.55,477.06
162.95,481.62
167.35,486.07
171.75,490.42
176.15,494.66
180.55,498.79
184.95,502.82
189.35,506.75
193.75,510.57
198.15,514.29
202.55,517.91
206.95,521.43
211.35,524.86
215.75,528.18
220.15,531.42
224.55,534.56
228.95,537.61
233.35,540.57
237.75,543.44
242.15,546.23
246.55,548.92
250.95,551.53
255.35,554.06
259.35,556.28
263.35,558.42
267.35,560.50
271.35,562.50
275.35,564.43
279.35,566.29
283.35,568.08
287.35,569.80
291.35,571.44
295.35,573.01
299.35,574.51
303.35,575.93
307.35,577.29
311.35,578.58
315.35,579.79
319.35,580.95
323.35,582.03
327.35,583.06
331.35,584.02
335.35,584.93
339.35,585.78
343.35,586.58
347.35,587.33
351.35,588.04
355.35,588.71
359.35,589.34
363.35,589.93
367.35,590.49
371.35,591.02
375.35,591.53
379.35,592.01
383.35,592.47
387.35,592.92
391.35,593.35
395.35,593.76
399.35,594.16
403.35,594.56
407.35,594.94
411.35,595.32
415.35,595.69
419.35,596.06
423.35,596.43
427.35,596.79
431.35,597.16
435.35,597.52
439.35,597.88
443.35,598.24
447.35,598.61
451.35,598.97
455.35,599.34
459.35,599.71
463.35,600.09
467.35,600.47
471.35,600.85
475.35,601.23
479.35,601.62
483.35,602.02
487.35,602.42
491.35,602.82
495.35,603.23
499.35,603.64
503.35,604.06
507.35,604.49
511.35,604.92
515.35,605.35
519.35,605.80
523.35,606.24
527.35,606.70
531.35,607.16
535.35,607.63
539.35,608.11
543.35,608.59
547.35,609.08
551.35,609.58
555.35,610.09
559.35,610.61
563.35,611.13
567.35,611.66
571.35,612.21
575.35,612.76
579.35,613.32
583.35,613.89
587.35,614.47
591.35,615.06
595.35,615.67
599.35,616.28
603.35,616.91
607.35,617.54
611.35,618.19
615.35,618.86
619.35,619.53
623.35,620.22
627.35,620.93
631.35,621.64
635.35,622.38
639.35,623.13
643.35,623.89
647.35,624.67
651.35,625.47
655.35,626.28
659.35,627.11
663.35,627.96
667.35,628.82
671.35,629.71
675.35,630.62
679.35,631.54
683.35,632.49
687.35,633.45
691.35,634.44
695.35,635.44
699.35,636.47
703.35,637.52
707.35,638.60
711.35,639.69
715.35,640.81
719.35,641.95
723.35,643.11
727.35,644.29
731.35,645.50
735.35,646.72
739.35,647.97
743.35,649.23
747.35,650.52
751.35,651.82
755.35,653.14
759.35,654.47
763.35,655.82
767.35,657.18
771.35,658.55
775.35,659.93
779.35,661.31
783.35,662.71
787.35,664.10
791.35,665.50
795.35,666.89
799.35,668.28
803.35,669.67
807.35,671.05
811.35,672.42
815.35,673.78
819.35,675.13
823.35,676.48
827.35,677.80
831.35,679.12
835.35,680.42
839.35,681.70
843.35,682.98
847.35,684.24
851.35,685.48
855.35,686.71
859.35,687.93
863.35,689.13
867.35,690.32
871.35,691.50
875.35,692.66
879.35,693.82
883.35,694.96
887.35,696.09
891.35,697.21
895.35,698.32
899.35,699.42
903.35,700.50
907.35,701.58
911.35,702.65
915.35,703.72
919.35,704.77
923.35,705.81
927.35,706.85
931.35,707.88
935.35,708.90
939.35,709.91
943.35,710.91
947.35,711.91
951.35,712.90
955.35,713.88
959.35,714.85
963.35,715.82
967.35,716.78
971.35,717.73
975.35,718.68
979.35,719.61
983.35,720.54
987.35,721.47
991.35,722.38
995.35,723.29
999.35,724.20