File: PMMA/Validation_Results/EDF/EDF_Gasification_q50_Temp.csv
Time,T
[s],[K]
0.00,300.00
2.04,300.00
4.11,300.00
6.15,300.02
8.20,300.11
10.28,300.36
12.36,300.88
14.39,301.71
16.48,302.96
18.50,304.54
20.59,306.56
22.66,308.94
24.73,311.63
26.85,314.70
28.87,317.89
30.95,321.40
33.08,325.20
35.09,328.97
37.16,332.97
39.28,337.19
41.44,341.63
43.48,345.86
45.56,350.26
47.68,354.81
49.85,359.49
51.95,364.04
53.95,368.39
55.95,372.73
57.95,377.07
59.95,381.39
61.95,385.68
63.95,389.95
66.15,394.61
68.35,399.22
70.55,403.79
72.75,408.30
74.95,412.76
77.15,417.16
79.35,421.51
81.55,425.80
83.75,430.03
85.95,434.21
88.15,438.33
90.35,442.39
92.55,446.40
94.75,450.35
96.95,454.25
99.15,458.10
101.35,461.89
103.55,465.64
105.75,469.33
107.95,472.98
110.15,476.58
112.35,480.13
114.55,483.64
116.75,487.11
118.95,490.53
121.15,493.91
123.35,497.24
125.55,500.54
127.75,503.80
129.95,507.01
132.15,510.19
134.35,513.34
136.55,516.44
138.75,519.51
140.95,522.54
143.15,525.53
145.35,528.49
147.55,531.41
149.75,534.30
151.95,537.15
154.15,539.96
156.35,542.74
158.55,545.48
160.75,548.18
162.95,550.85
165.15,553.47
167.35,556.06
169.55,558.60
171.75,561.10
173.95,563.56
176.15,565.96
178.35,568.32
180.55,570.63
182.75,572.88
184.95,575.08
187.15,577.22
189.35,579.29
191.55,581.31
193.75,583.25
195.95,585.12
198.15,586.93
200.35,588.65
202.55,590.31
204.75,591.89
206.95,593.40
209.15,594.83
211.35,596.20
213.55,597.49
215.75,598.72
217.95,599.89
220.15,601.00
222.35,602.07
224.55,603.08
226.75,604.06
228.95,605.00
231.15,605.92
233.35,606.81
235.55,607.68
237.75,608.55
239.95,609.40
242.15,610.25
244.35,611.10
246.55,611.96
248.75,612.82
250.95,613.69
253.15,614.58
255.35,615.48
257.35,616.32
259.35,617.17
261.35,618.04
263.35,618.93
265.35,619.84
267.35,620.78
269.35,621.73
271.35,622.71
273.35,623.71
275.35,624.74
277.35,625.79
279.35,626.87
281.35,627.99
283.35,629.13
285.35,630.30
287.35,631.51
289.35,632.76
291.35,634.04
293.35,635.36
295.35,636.71
297.35,638.11
299.35,639.56
301.35,641.04
303.35,642.58
305.35,644.16
307.35,645.79
309.35,647.47
311.35,649.21
313.35,651.00
315.35,652.85
317.35,654.75
319.35,656.71
321.35,658.73
323.35,660.80
325.35,662.93
327.35,665.10
329.35,667.33
331.35,669.60
333.35,671.91
335.35,674.25
337.35,676.63
339.35,679.02
341.35,681.43
343.35,683.84
345.35,686.26
347.35,688.66
349.35,691.05
351.35,693.42
353.35,695.76
355.35,698.07
357.35,700.34
359.35,702.58
361.35,704.78
363.35,706.93
365.35,709.04
367.35,711.11
369.35,713.14
371.35,715.14
373.35,717.11
375.35,719.05
377.35,720.96
379.35,722.85
381.35,724.72
383.35,726.57
385.35,728.41
387.35,730.23
389.35,732.04
391.35,733.83
393.35,735.62
395.35,737.40
397.35,739.17
399.35,740.93
401.35,742.69
403.35,744.44
405.35,746.18
407.35,747.92
409.35,749.66
411.35,751.39
413.35,753.11
415.35,754.84
417.35,756.55
419.35,758.27
421.35,759.97
423.35,761.68
425.35,763.38
427.35,765.07