File: PMMA/Validation_Results/EDF/EDF_Gasification_q25_MLR.csv
Time,MLR
[s],[g/s/m2]
0.00,0.00
4.11,0.00
8.20,0.00
12.36,0.00
16.48,0.00
20.59,0.00
24.73,0.00
28.87,0.00
33.08,0.00
37.16,0.00
41.44,0.00
45.56,0.00
49.85,0.00
53.95,0.00
57.95,0.00
61.95,0.00
66.15,0.00
70.55,0.01
74.95,0.01
79.35,0.02
83.75,0.04
88.15,0.06
92.55,0.09
96.95,0.14
101.35,0.21
105.75,0.30
110.15,0.42
114.55,0.57
118.95,0.76
123.35,0.98
127.75,1.23
132.15,1.51
136.55,1.80
140.95,2.10
145.35,2.41
149.75,2.71
154.15,3.01
158.55,3.30
162.95,3.58
167.35,3.84
171.75,4.10
176.15,4.35
180.55,4.59
184.95,4.82
189.35,5.04
193.75,5.25
198.15,5.46
202.55,5.67
206.95,5.87
211.35,6.06
215.75,6.25
220.15,6.44
224.55,6.63
228.95,6.81
233.35,6.99
237.75,7.17
242.15,7.35
246.55,7.52
250.95,7.69
255.35,7.87
259.35,8.02
263.35,8.18
267.35,8.33
271.35,8.48
275.35,8.63
279.35,8.78
283.35,8.93
287.35,9.07
291.35,9.22
295.35,9.36
299.35,9.50
303.35,9.63
307.35,9.76
311.35,9.89
315.35,10.01
319.35,10.13
323.35,10.25
327.35,10.35
331.35,10.46
335.35,10.55
339.35,10.64
343.35,10.73
347.35,10.81
351.35,10.88
355.35,10.95
359.35,11.01
363.35,11.06
367.35,11.11
371.35,11.16
375.35,11.20
379.35,11.24
383.35,11.27
387.35,11.30
391.35,11.33
395.35,11.35
399.35,11.37
403.35,11.39
407.35,11.40
411.35,11.42
415.35,11.43
419.35,11.44
423.35,11.45
427.35,11.46
431.35,11.46
435.35,11.47
439.35,11.47
443.35,11.48
447.35,11.48
451.35,11.49
455.35,11.49
459.35,11.49
463.35,11.50
467.35,11.50
471.35,11.50
475.35,11.50
479.35,11.51
483.35,11.51
487.35,11.51
491.35,11.51
495.35,11.52
499.35,11.52
503.35,11.52
507.35,11.52
511.35,11.53
515.35,11.53
519.35,11.53
523.35,11.53
527.35,11.53
531.35,11.54
535.35,11.54
539.35,11.54
543.35,11.54
547.35,11.54
551.35,11.54
555.35,11.55
559.35,11.55
563.35,11.55
567.35,11.55
571.35,11.55
575.35,11.55
579.35,11.55
583.35,11.55
587.35,11.55
591.35,11.55
595.35,11.55
599.35,11.55
603.35,11.55
607.35,11.55
611.35,11.54
615.35,11.54
619.35,11.54
623.35,11.53
627.35,11.53
631.35,11.52
635.35,11.51
639.35,11.50
643.35,11.49
647.35,11.48
651.35,11.47
655.35,11.45
659.35,11.43
663.35,11.41
667.35,11.39
671.35,11.37
675.35,11.34
679.35,11.31
683.35,11.27
687.35,11.24
691.35,11.19
695.35,11.15
699.35,11.09
703.35,11.04
707.35,10.97
711.35,10.90
715.35,10.83
719.35,10.74
723.35,10.65
727.35,10.55
731.35,10.44
735.35,10.32
739.35,10.20
743.35,10.06
747.35,9.91
751.35,9.75
755.35,9.58
759.35,9.40
763.35,9.21
767.35,9.00
771.35,8.79
775.35,8.56
779.35,8.33
783.35,8.08
787.35,7.83
791.35,7.57
795.35,7.30
799.35,7.02
803.35,6.74
807.35,6.46
811.35,6.18
815.35,5.89
819.35,5.61
823.35,5.32
827.35,5.05
831.35,4.77
835.35,4.50
839.35,4.24
843.35,3.99
847.35,3.74
851.35,3.51
855.35,3.28
859.35,3.07
863.35,2.86
867.35,2.66
871.35,2.48
875.35,2.30
879.35,2.14
883.35,1.98
887.35,1.84
891.35,1.70
895.35,1.58
899.35,1.46
903.35,1.35
907.35,1.25
911.35,1.15
915.35,1.06
919.35,0.98
923.35,0.91
927.35,0.84
931.35,0.77
935.35,0.71
939.35,0.66
943.35,0.61
947.35,0.56
951.35,0.52
955.35,0.48
959.35,0.44
963.35,0.41
967.35,0.38
971.35,0.35
975.35,0.32
979.35,0.30
983.35,0.28
987.35,0.26
991.35,0.24
995.35,0.22
999.35,0.20