File: Non-charring/PMMA/Edinburgh/Edinburgh_Cone_25kW_3.csv
Time,Mass,HRR,Back Temp
[s],[g],[kW/m2],[C]
0,73.7871,0.1,17
5.1,66.7271,0.1,17.1
10.1,73.5571,-0.1,17.1
15.2,73.4471,-0.1,17.2
20.3,73.3471,-0.1,17.3
25.3,73.2271,0,17.3
30.4,73.1571,-0.3,17.4
35.5,73.0671,-0.2,17.5
40.6,73.0371,-0.3,17.6
45.6,73.0271,0.1,17.6
50.7,73.0471,0,17.8
55.8,73.0371,0.1,17.9
60.8,73.0571,-0.2,18
65.9,73.0571,-0.1,18.2
71,73.0271,-0.2,18.3
76,73.0171,0,18.5
81.1,73.0071,-0.3,18.7
86.2,72.9871,-0.2,18.9
91.3,72.9871,-0.2,19.2
96.3,72.9871,-3.8,19.4
101.4,72.8571,-0.1,19.7
106.5,72.5571,0,20
111.5,72.0371,0,20.4
116.6,71.4771,11.5,20.6
121.7,70.8971,51.4,21
126.8,70.3271,109.2,21.3
131.8,69.7271,161.3,21.8
136.9,69.1171,197.9,22.2
142,68.4871,224.1,22.7
147,67.8971,248,23.3
152.1,67.3571,255.8,23.8
157.2,66.6971,267.5,24.5
162.2,66.0371,275,25.2
167.3,65.3371,275.8,25.8
172.4,64.6671,290.7,26.4
177.5,64.0271,287.9,27.1
182.5,63.3871,299.9,27.7
187.6,62.7171,306.5,28.4
192.7,62.0171,308.3,29.1
197.7,61.3571,312.9,29.8
202.8,60.7071,314.7,30.5
207.9,60.0471,302.5,31.3
212.9,59.3671,315.5,32
218,58.7071,318.2,32.7
223.1,58.0271,312.1,33.4
228.2,57.3271,311.4,34.1
233.2,56.6571,307.2,34.7
238.3,55.9871,307,35.4
243.4,55.2871,321.2,36.1
248.4,54.6071,313.7,36.8
253.5,53.9371,311.5,37.4
258.6,53.2071,313.5,38.1
263.6,52.5071,318.2,38.9
268.7,51.8371,318.4,39.4
273.8,51.0971,320.7,40.1
278.9,50.3571,333.3,40.7
283.9,49.6271,330.2,41.4
289,48.9271,336,42.1
294.1,48.2071,330.2,42.8
299.1,47.4271,350.5,43.5
304.2,46.6771,332.4,44.2
309.3,45.9371,341.8,44.8
314.3,45.1571,340.6,45.5
319.4,44.3671,338.3,46.2
324.5,43.5571,350.4,46.8
329.6,42.7771,343.7,47.5
334.6,41.9471,343.8,48.2
339.7,41.1471,356.4,49
344.8,40.3071,370.7,49.6
349.8,39.4371,376.7,50.3
354.9,38.5671,375.3,51
360,37.7071,373.4,51.7
365,36.8671,390.3,52.5
370.1,35.9871,390.2,53.1
375.2,35.1371,388.5,53.9
380.3,34.2971,396.9,54.7
385.3,33.4171,401.9,55.5
390.4,32.5671,402.7,56.4
395.5,31.7071,406.4,57.2
400.5,30.8371,402,58.2
405.6,29.9871,411.5,59.2
410.7,29.1071,402.8,60.3
415.7,28.2871,406.8,61.4
420.8,27.4671,403.7,62.5
425.9,26.6671,408.9,63.7
431,25.9271,400.2,64.9
436,25.1971,397.3,66.1
441.1,24.4271,391,67.3
446.2,23.6971,390.8,68.6
451.2,22.9671,375.8,69.9
456.3,22.2571,375.1,71.2
461.4,21.5671,374.4,72.5
466.4,20.8871,356,74.1
471.5,20.1771,347.9,75.2
476.6,19.4871,352.4,76.7
481.7,18.8671,343,78.1
486.7,18.1971,331,79.5
492.5,17.4471,330.3,81.1
496.9,16.8971,323.6,82.4
501.9,16.2371,319.4,83.9
507,15.6471,316.2,85.4
512.1,15.0871,318.2,86.9
517.1,14.5571,310.8,88.5
522.2,14.0471,308.2,90.1
527.3,13.6171,293.2,91.7
532.4,13.1971,285.4,93.4
537.4,12.8071,266.7,95.2
542.5,12.4471,250.7,97
547.6,11.9771,235.2,98.8
552.6,11.5971,212.1,100.6
557.7,11.3371,204.5,102.5
562.8,11.0671,186.4,104.3
567.8,10.8071,165.8,106.5
572.9,10.5671,159.6,108.2
578,10.3571,147.6,110.2
583.1,10.1771,138,112.3
588.1,9.97714,131.9,114.3
593.2,9.78714,121.9,116.4
598.3,9.62714,116.3,118.4
603.3,9.45714,109.3,120.5
608.4,9.30714,101.7,122.5
613.5,9.13714,93.8,124.5
618.5,8.99714,88.7,126.6
623.6,8.84714,84.9,128.6
628.7,8.70714,79.6,130.6
633.8,8.59714,76.6,132.6
638.8,8.45714,71.5,134.6
643.9,8.35714,67.4,136.6
649,8.23714,65.6,138.5
654,8.13714,59.3,140.4
659.1,8.04714,55.8,142.3
664.2,7.94714,54.3,144.1
669.2,7.85714,51.2,146.3
674.3,7.77714,52.3,147.7
679.4,7.68714,48.5,149.5
684.4,7.60714,46.9,151.1
689.5,7.49714,44.6,152.8
694.6,7.40714,40.2,154.5
699.7,7.32714,40.9,156.1
704.7,7.26714,41.4,157.7
709.8,7.18714,38.6,159.2
714.9,7.10714,37.4,160.8
719.9,7.02714,38.8,162.3
725,6.93714,36.1,163.8
730.1,6.86714,35.9,165.3
735.1,6.79714,36.3,166.8
740.2,6.72714,36.8,168.3
745.3,6.64714,33.3,169.7
750.4,6.60714,32.9,171.2
755.4,6.53714,33.2,172.6
760.5,6.45714,32.9,174
765.6,6.38714,30.2,175.4
770.6,6.32714,30.1,177
775.7,6.23714,30.1,178.1
780.8,6.19714,30.8,179.4
785.8,6.08714,30.8,180.8
790.9,6.05714,30.7,182.1
796,5.98714,31.1,183.4
801.1,5.90714,31.1,184.7
806.1,5.83714,31.1,186
811.2,5.74714,31.2,187.3
816.3,5.71714,31.4,188.5
821.3,5.65714,30.7,189.8
826.4,5.55714,31.3,191
831.5,5.43714,27.5,192.3
836.5,5.36714,28.7,193.5
841.6,5.28714,28,194.7
846.7,5.22714,28.3,195.9
851.8,5.14714,28.8,197.1
856.8,5.09714,28.6,198.2
861.9,5.03714,28.2,199.4
867,4.96714,28.5,200.5
872,4.90714,29.3,201.9
877.1,4.83714,28,202.8
882.2,4.77714,28.7,203.9
887.2,4.67714,25.3,205.1
892.3,4.61714,28.4,206.2
897.4,4.56714,25.2,207.4
902.5,4.51714,25.1,208.5
907.5,4.44714,25.1,209.6
912.6,4.39714,25.1,210.7
917.7,4.25714,25,211.8
922.7,4.22714,25.2,212.8
927.8,4.14714,25.4,213.8
932.9,4.04714,25.4,214.9
937.9,4.00714,25.8,216
943,3.94714,25.5,216.9
948.1,3.88714,25.7,218
953.2,3.84714,26.1,219
958.2,3.78714,25.9,220.1
963.3,3.70714,25.4,221
968.4,3.62714,26.1,222.1
973.4,3.57714,26.2,223.3
978.5,3.51714,25.6,224.1
983.6,3.42714,25.9,225.1
988.6,3.36714,25.4,226.1
993.7,3.28714,26.4,227.1
998.8,3.23714,25.5,228
1003.9,3.18714,26.1,228.9
1008.9,3.11714,25.5,229.9
1014,3.04714,26,230.8
1019.1,2.99714,22.4,231.8
1024.1,2.94714,22.3,232.7
1029.2,2.89714,22.8,233.7
1034.3,2.83714,22.6,234.6
1039.3,2.77714,22.7,235.5
1044.4,2.71714,22.3,236.4
1049.5,2.67714,22.6,237.3
1054.6,2.59714,22.8,238.2
1059.6,2.55714,22.6,239.1
1064.7,2.51714,23.1,240
1069.8,2.45714,18.9,240.9
1074.8,2.39714,19,241.9
1079.9,2.32714,19,242.7
1085,2.28714,19.7,243.6
1090,2.19714,19.7,244.4
1095.1,2.13714,19.4,245.3
1100.2,2.08714,19.3,246.1
1105.3,2.01714,19.8,246.9
1110.3,1.95714,19.6,247.8
1115.4,1.94714,19.9,248.6
1120.5,1.91714,15.9,249.5
1125.5,1.84714,16.4,250.2
1130.6,1.77714,15.9,251
1135.7,1.70714,16.1,251.8
1140.7,1.65714,16.1,252.6
1145.8,1.61714,16.5,253.4
1150.9,1.55714,16.6,254.1
1156,1.51714,16.8,254.9
1161,1.44714,16.5,255.6
1166.1,1.43714,16.9,256.4
1171.2,1.38714,12.8,257.1
1176.2,1.29714,12.9,258
1182.4,1.26714,13,258.7
1187.4,1.21714,13.2,259.5
1192.5,1.17714,13.3,260.2
1197.5,1.14714,13.6,260.9
1202.6,1.08714,13.2,261.6
1207.7,1.07714,10.1,262.3
1212.7,1.03714,10,263
1217.8,0.967143,10,263.7
1222.9,0.957143,9.8,264.4
1228,0.927143,10,265
1233,0.897143,10,265.7
1238.1,0.877143,10.5,266.3
1243.2,0.807143,10.4,267
1248.2,0.777143,10.7,267.7
1253.3,0.787143,10.5,268.4
1258.4,0.737143,11,269
1263.4,0.677143,10.8,269.6
1268.5,0.647143,7.9,270.2
1273.6,0.597143,7.5,270.9
1278.7,0.577143,7.8,271.6
1283.7,0.547143,7.8,272.1
1288.8,0.517143,7.8,272.7
1293.9,0.477143,7.8,273.3
1298.9,0.437143,7.6,273.9
1304,0.387143,7.7,274.6
1309.1,0.377143,8,275.1
1314.1,0.337143,7.8,275.8
1319.2,0.287143,8.2,276.3
1324.3,0.247143,8.1,276.9
1329.4,0.247143,8.1,277.4
1334.4,0.207143,8,278
1339.5,0.197143,7.9,278.5
1344.6,0.197143,4.5,279
1349.6,0.167143,4.4,279.6
1354.7,0.127143,4.4,280.1
1359.8,0.0971429,4.5,280.6
1364.9,0.0471429,4.3,281.1