File: Non-charring/PMMA/Edinburgh/Edinburgh_Cone_25kW_1.csv
Time,Mass,HRR,Back Temp
[s],[g],[kW/m2],[C]
0,68.4,0.09,13.1
5.07,69.93,0.09,13.1
10.14,69.94,3.15,13
15.21,69.97,2.96,13.1
20.28,70,3.07,13.1
25.35,70.01,3.04,13.1
30.42,69.99,3.08,13.2
35.49,69.99,6.38,13.2
40.56,41.29,6.17,13.3
45.63,43.58,6.2,13.3
50.7,42.7,2.64,13.4
55.77,42.67,2.75,13.5
60.84,42.64,-0.57,13.6
66.92,42.56,-0.5,13.8
71.99,42.46,-0.29,13.9
77.58,42.37,-0.16,14.1
82.13,42.3,-0.03,14.3
87.2,42.24,0.02,14.5
92.29,42.16,0.19,14.7
97.36,42.07,0.09,14.9
102.43,41.88,-0.1,15.1
107.5,41.38,0.01,15.4
112.57,40.81,0.01,15.7
117.64,40.52,11.33,16
122.71,39.95,56.61,16.3
127.78,39.35,111.67,16.6
132.85,38.62,160.04,17.1
138.93,37.9,216.01,17.7
144,37.27,232.39,18.2
149.07,36.62,244.08,18.6
154.14,35.98,266.98,19.2
159.21,35.36,277.78,19.8
164.28,34.72,286.27,20.3
169.48,34.06,295.31,20.9
174.42,33.3,296.23,21.6
179.67,32.76,297.72,22.2
184.56,32.11,296.85,22.8
189.63,31.46,297.34,23.4
194.7,30.78,302.53,24.1
199.77,30.07,318.21,24.8
204.84,29.43,316.86,25.4
209.91,28.73,300.52,26.1
214.98,28.08,316.14,26.8
220.05,27.38,325.59,27.5
225.12,26.7,316.08,28.2
230.19,26.01,317.09,28.9
235.26,25.38,322.06,29.6
240.33,24.74,325.06,30.3
245.4,24.05,322.38,31.1
250.48,23.36,325.53,31.8
255.55,22.67,317.11,32.5
260.62,21.96,325.66,33.3
265.69,21.23,333.37,34
270.76,20.53,324.76,34.7
275.83,19.67,325.76,35.5
281.19,19.05,328.64,36.2
285.97,18.29,335.31,36.9
291.04,17.56,336.62,37.7
296.11,16.82,351.38,38.4
301.18,16.03,346.24,39.2
306.25,15.31,347.73,39.9
311.32,14.57,354.93,40.6
316.39,13.93,350.3,41.4
321.46,13.16,351.8,42.1
326.53,12.31,366.5,42.9
331.6,11.52,363.54,43.7
336.67,10.65,389.88,44.5
341.74,9.82,372.75,45.3
346.81,8.94,381.78,46.1
351.88,8.11,387.97,47
356.95,7.3,380.36,47.9
362.02,6.49,390.7,48.8
367.09,5.7,392.24,49.8
372.16,4.89,396.11,50.9
377.23,3.99,393.1,52.1
382.53,3.32,383.78,53.1
387.37,2.58,386.9,54.3
392.44,1.8,390.38,55.5
397.51,1.09,380.88,56.7
402.58,0.37,381.73,58
407.65,-0.35,380.72,59.4
412.72,-1.07,371.51,60.8
417.79,-1.75,358.78,62.3
422.86,-2.4,356.16,63.8
427.93,-3.02,352.12,65.3
433,-3.64,347.31,66.9
438.07,-4.28,333.2,68.4
443.14,-4.88,325.51,70.1
448.21,-5.49,319.51,71.7
453.28,-6.06,314.82,73.4
458.35,-6.66,298.25,75.1
463.42,-7.2,300.21,76.8
468.49,-7.76,288.3,78.5
473.56,-8.34,286.99,80.3
478.63,-8.99,280.32,82.3
483.96,-9.43,278.35,83.9
488.77,-9.97,271.4,85.7
493.84,-10.48,265.42,87.5
498.91,-10.98,266.56,89.4
503.98,-11.47,260.94,91.3
509.05,-12.01,264.21,93.2
514.12,-12.45,260.71,95.1
519.19,-12.9,247.44,97
524.26,-13.33,246.26,98.9
529.33,-13.74,232.2,100.9
534.4,-14.14,237.42,102.8
539.47,-14.52,228.66,104.8
544.54,-14.85,219.03,106.8
549.61,-15.18,206.22,108.8
554.68,-15.49,201.25,110.8
559.75,-15.77,192.84,113
564.82,-16.01,183.52,115.2
569.89,-16.26,169.48,117.3
574.96,-16.47,157.55,119.5
580.03,-16.69,145.21,122.1
586.11,-16.89,129.45,124.2
591.18,-17.07,117.71,126.4
596.25,-17.24,111.56,128.6
601.32,-17.39,103.4,130.7
606.39,-17.54,95.85,132.8
611.46,-17.72,90.02,135
616.53,-17.88,85.57,137.2
621.6,-18.02,81.66,139.3
626.67,-18.17,73.98,141.3
631.74,-18.29,72,143.3
636.81,-10.34,72.64,145.4
641.88,-7.3,69.33,147.4
646.95,-7.52,69.24,149.4
652.02,-7.7,68.88,151.5
657.09,-7.84,66.01,153.6
662.16,-8.06,65.44,155.7
667.23,-8.3,64.73,157.8
672.3,-8.45,62.63,159.8
677.37,-8.61,59.96,161.7
682.44,-8.72,58.52,163.8
687.71,-8.83,54.07,165.5
692.58,-8.94,51.39,167.4
697.65,-9.05,51.48,169.1
702.72,-9.16,50.24,171
707.79,-9.28,50.32,172.8
712.86,-9.38,50.42,174.6
717.93,-9.54,46.5,176.4
723,-9.78,47.58,178.2
728.07,-9.96,47.16,180
733.14,-10.1,46.79,181.8
738.21,-10.24,46.26,183.5
743.28,-10.37,43.75,185.2
748.35,-10.48,44.37,186.8
753.42,-10.6,40.43,188.5
758.49,-10.77,42.07,190.2
763.56,-10.85,41.08,191.9
768.63,-10.95,38.44,193.5
773.7,-11.07,38.55,195.1
778.77,-11.14,39.43,196.6
783.84,-11.29,39.93,198.3
789.14,-11.4,35.7,199.7
793.97,-11.48,36.45,201.2
799.04,-11.59,36.57,202.7
804.11,-11.66,33.99,204.1
809.18,-11.75,33.72,205.5
814.25,-11.82,30.44,206.8
819.32,-11.88,30.41,208.2
824.39,-11.97,30.94,209.5
829.46,-12.04,27.96,210.8
834.53,-12.13,28.2,212.1
839.6,-12.18,29.08,213.4
844.67,-12.24,24.99,214.8
849.74,-12.34,25.57,216.1
854.81,-12.39,25.35,217.4
859.88,-12.47,25.91,218.7
864.95,-12.55,25.97,219.9
870.02,-12.6,25.52,221.1
875.09,-12.68,23.02,222.3
880.16,-12.71,22.95,223.5
885.23,-12.81,22.46,224.8
890.6,-12.86,23.7,225.8
895.37,-12.94,23.76,227
900.49,-12.99,23.11,228
905.51,-13.06,19.69,229.2
910.58,-13.1,19.78,230.3
915.65,-13.17,20.02,231.4
920.72,-13.22,20,232.5
925.79,-13.29,20.28,233.5
930.86,-13.35,20.39,234.6
935.93,-13.42,20.04,235.6
941,-13.44,20.34,236.6
946.07,-13.49,23.66,237.6
951.14,-13.52,23.25,238.6
956.21,-13.55,23.94,239.6
961.28,-13.88,19.99,240.6
966.35,-16.73,20.27,241.5
971.42,-11.06,16.99,242.4
976.49,-8.37,16.65,243.3
981.56,-8.43,16.71,244.2
986.63,-8.5,16.9,245.2
992.06,-8.55,20.16,246
996.77,-8.64,20.53,246.9
1001.84,-8.69,20.69,247.7
1006.91,-8.78,16.79,248.6
1011.98,-8.81,17.79,249.5
1017.05,-8.88,17.51,250.3
1022.12,-8.92,17.58,251.1
1027.19,-8.99,17.62,252
1032.26,-9.05,17.26,252.8
1037.33,-9.09,17.27,253.6
1042.4,-9.14,17.46,254.4
1047.47,-9.19,13.5,255.2
1052.54,-9.24,13.88,256
1057.61,-9.28,13.98,256.7
1062.68,-9.33,14.06,257.6
1067.75,-9.38,14.3,258.3
1072.82,-9.43,14.04,259.1
1077.89,-9.46,14.65,259.8
1082.96,-9.5,10.79,260.6
1088.04,-9.57,11.2,261.4
1093.37,-9.62,11.3,262.1
1098.18,-9.67,11.06,262.9
1103.25,-9.71,11.04,263.6
1108.32,-9.77,10.9,264.3
1113.39,-9.83,10.92,265
1118.46,-9.86,11.29,265.7
1123.53,-9.89,10.83,266.5
1128.6,-9.92,10.91,267.2
1133.67,-9.95,10.65,267.9
1138.74,-10.02,10.94,268.5
1143.81,-10.07,11.02,269.2
1148.88,-10.14,10.99,269.9
1153.95,-10.17,11.41,270.6
1159.02,-10.19,11.3,271.2
1164.09,-10.21,7.97,271.9
1169.16,-10.25,8.16,272.6
1174.23,-10.27,7.96,273.3
1179.3,-10.31,8.13,274
1184.37,-10.35,8.02,274.6
1189.44,-10.38,7.77,275.3
1194.82,-10.43,8.12,275.9
1199.58,-10.46,7.93,276.5
1204.65,-10.51,8.3,277.1
1209.72,-10.54,8.56,277.7
1214.79,-10.64,4.89,278.3
1219.86,-10.62,5.14,278.9
1224.93,-10.75,5.19,279.5
1227.97,-10.71,5.07,279.9