File: Non-charring/PMMA/Edinburgh/Edinburgh_Cone_65kW_3.csv
Time,Mass,HRR,Back Temp
[s],[g],[kW/m2],[C]
0,71.366,-3.1,28.4
2,71.646,-3.2,28.4
4.1,71.626,-3,28.5
6.1,71.606,-3.3,28.5
8.1,71.586,0.3,28.6
10.1,71.566,0.1,28.6
12.2,71.526,0.2,28.6
14.2,71.466,0.2,28.7
16.2,71.326,0.3,28.8
18.3,71.136,0.1,28.8
20.3,70.836,-0.1,28.8
22.3,70.396,-0.2,28.9
24.3,69.916,-0.2,29
26.4,69.446,-0.1,29.1
28.4,68.986,-0.1,29.1
30.4,68.516,5.3,29.2
32.4,68.046,17.7,29.3
34.5,67.566,47.8,29.4
36.5,67.066,90.5,29.5
,66.526,126.2,29.6
40.6,66.006,178.2,29.8
42.6,65.456,209.6,29.9
44.6,64.936,263.7,30
46.6,64.376,303.8,30.1
48.7,63.806,330.9,30.3
50.7,63.286,387.9,30.4
52.7,62.756,388.1,30.6
54.8,62.216,426.3,30.7
56.8,61.666,439,31
58.8,61.126,492.1,31
60.8,60.566,493.1,31.2
62.9,60.006,496.9,31.4
64.9,59.426,539,31.6
66.9,58.866,515.3,31.7
69,58.316,554.1,32
71,57.766,571.1,32.2
73,57.206,569.9,32.4
75,56.656,567.5,32.8
77.9,55.856,576.9,33
79.4,55.476,579.2,33.2
81.1,55.026,608.6,33.6
83.1,54.476,608,33.9
85.2,53.926,593.6,34.3
87.2,53.366,608.6,34.7
89.2,52.826,620.2,35.1
91.3,52.276,655.6,35.6
93.3,51.696,627.6,36
95.3,51.106,659.1,36.5
97.3,50.526,637.5,36.9
99.4,49.946,681.6,37.4
101.4,49.356,660.8,37.8
103.4,48.766,651.8,38.3
105.5,48.196,627.9,38.8
107.5,47.606,638.6,39.2
109.5,47.046,622.8,39.8
112.3,46.276,630.4,40
113.8,45.826,641.2,40.3
115.6,45.296,683.7,40.6
117.6,44.696,676.3,41
119.7,44.106,644,41.3
121.7,43.496,658.2,41.6
123.7,42.896,687.1,41.9
125.7,42.316,685.6,42.3
127.8,41.726,699,42.6
129.8,41.136,655.7,42.9
131.8,40.536,708.5,43.3
133.8,39.936,664.8,43.6
135.9,39.316,677.7,44
137.9,38.696,705.5,44.4
139.9,38.076,702.8,44.7
142,37.456,696.9,45
144,36.826,684.1,45.4
146,36.206,695.6,45.8
148,35.556,714,46.2
150.1,34.906,718.5,46.5
152.1,34.246,703.2,46.8
154.1,33.586,718.8,47.2
156.2,32.926,712.3,47.7
158.2,32.266,729.6,48
160.2,31.566,705,48.3
162.2,30.836,706,48.7
164.3,30.176,699.5,49.1
166.3,29.456,761.7,49.5
168.3,28.736,723.1,49.9
170.4,28.026,765.9,50.2
172.4,27.276,764.1,50.7
174.4,26.516,768.5,51
176.4,25.756,752.4,51.6
179.4,24.626,818.8,51.9
180.9,24.066,776.5,52.3
182.5,23.456,812.3,52.9
184.6,22.706,797.3,53.3
186.6,21.966,795.1,53.9
188.6,21.216,866.4,54.5
190.6,20.486,877.2,55.2
192.7,19.756,864.5,56
194.7,19.006,891.3,56.7
196.7,18.256,828.8,57.5
198.7,17.526,862.1,58.4
200.8,16.776,866.3,59.2
202.8,16.036,896.7,60.1
204.8,15.316,930.6,61.1
206.9,14.596,862.2,62.1
208.9,13.846,906.7,63.1
210.9,13.116,843.1,64.1
212.9,12.366,885.4,65.2
215,11.666,927,66.1
217,10.996,930.6,66.9
219,10.296,910.7,67.9
221.1,9.646,909.7,68.9
223.1,9.046,979.4,69.9
225.1,8.506,992.5,71
227.1,7.996,1008,72
229.2,7.536,992.9,73.2
231.2,7.126,1017.5,74.7
233.2,6.776,1043.9,76.4
235.2,6.456,1026.1,78.1
237.3,6.196,1028.7,79.7
239.3,5.956,969.4,81.3
241.3,5.716,970.5,82.9
243.4,5.496,888.4,84.6
245.4,5.276,843.7,86.3
247.4,5.066,818.5,87.9
249.4,4.866,755.9,89.7
251.5,4.656,677.4,91.5
253.5,4.456,627.3,93.2
255.5,4.246,580.1,94.8
257.6,4.036,521.2,96.4
259.6,3.836,493.5,97.7
261.6,3.626,459.6,98.1
263.6,3.406,432,97.7
265.7,3.216,400.4,97.4
267.7,3.006,371.2,97.6
269.7,2.826,356.3,97.8
271.8,2.656,336.3,98.2
273.8,2.486,318.7,100.1
275.8,2.316,304.9,104.6
277.8,2.176,279.4,108.9
280.6,1.986,276.6,110.6
282.1,1.896,260.2,112.4
283.9,1.766,262.4,114.1
285.9,1.596,242,115.8
288,1.476,238.9,117.3
290,1.346,231.6,118.8
292,1.216,220.9,120.3
294.1,1.096,217.9,121.7
296.1,0.976,213.9,123.1
298.1,0.886,207.3,124.7
300.1,0.776,206.5,126
302.2,0.686,201.9,127.6
304.2,0.616,196.1,129
306.2,0.516,188.9,130.5
308.3,0.416,181.3,131.9
310.3,0.326,170.9,133.2
312.3,0.226,170.4,134.5
314.3,0.156,164.1,135.7
316.4,0.076,161,137
318.4,-0.014,151.1,138.3
320.4,-0.094,147.5,139.5
322.5,-0.174,137.6,140.7
324.5,-0.244,132.4,141.8
326.5,-0.314,132.2,142.9
328.5,-0.364,125.8,144.1
330.6,-0.444,119.9,145.2
332.6,-0.504,118,146.2
334.6,-0.544,114,147.3
336.7,-0.604,111.8,148.3
338.7,-0.684,107.2,149.4
340.7,-0.724,103.9,150.5
342.7,-0.794,102.3,151.5
344.8,-0.834,96.7,152.5
346.8,-0.874,92.3,153.5
348.8,-0.944,91.9,154.4
350.8,-0.974,90.7,155.2
352.9,-1.014,85.7,156.2
354.9,-1.064,83.3,157.1
356.9,-1.094,81.1,157.9
359,-1.154,80,158.8
361,-1.204,78,159.7
363,-1.254,75.6,160.6
365,-1.284,72.7,161.5
367.1,-1.344,70.8,162.4
369.1,-1.374,69.1,163.3
371.1,-1.414,65.8,164.2
373.2,-1.414,62,165
375.2,-1.474,61.4,165.9
377.2,-1.514,61.5,166.8
379.2,-1.564,59.4,168
382,-1.604,56.5,168.8
383.5,-1.634,54.7,169.5
385.3,-1.654,51.7,170.3
387.4,-1.674,52.6,171.2
389.4,-1.704,50,172
391.4,-1.734,50.9,172.8
393.4,-1.764,48.6,173.6
395.5,-1.794,45.9,174.4
397.5,-1.814,46.2,175.2
399.5,-1.834,42.5,176
401.5,-1.854,39.8,176.8
403.6,-1.864,40.8,177.6
405.6,-1.884,37.9,178.3
407.6,-1.884,35.2,179
409.7,-1.894,34.9,179.8
411.7,-1.904,33.2,180.5
413.7,-1.914,30.2,181.3
415.7,-1.924,31.2,182
417.8,-1.924,27.6,182.8
419.8,-1.934,27.8,183.5
421.8,-1.944,25.3,184.2
423.9,-1.964,25.9,184.9
425.9,-1.974,23.4,185.6
427.9,-1.974,23.5,186.3
429.9,-1.994,20.5,187
432,-2.004,20.6,187.7
434,-2.004,17.6,188.4
436,-2.004,17.6,189.1
438.1,-2.004,15.5,189.8
440.1,-2.004,15.4,190.4
442.1,-2.004,12.7,191.1
444.1,-2.004,12.5,191.8
446.2,-2.004,12.5,192.5
448.2,-2.024,12.9,193.1
450.2,-2.014,13,193.8
452.2,-2.044,10.3,194.5
454.3,-2.044,10.3,195.2
456.3,-2.044,10.3,195.8
458.3,-2.054,10.4,196.5
460.4,-2.064,10.2,197.2
462.4,-2.074,10.8,197.8
464.4,-2.074,10.3,198.4
466.4,-2.074,10.7,199.1
468.5,-2.084,7.6,199.7
470.5,-2.084,7.8,200.4
472.5,-2.084,8,201
474.6,-2.084,8,201.6