File: Non-charring/PMMA/Edinburgh/Edinburgh_Cone_65kW_2.csv
Time,Mass,HRR,Back Temp
[s],[g],[kW/m2],[C]
0,70.406,2.3,20.3
2,70.446,2.4,20.3
4.1,70.456,2.2,20.3
6.1,70.456,2.4,20.3
8.1,70.446,2.3,20.3
10.1,70.466,2.2,20.3
12.2,70.476,2.2,20.4
14.2,70.496,2.1,20.4
16.2,70.496,1.9,20.4
18.3,70.446,1.6,20.4
20.3,70.316,4.5,20.4
22.3,70.006,4.1,20.5
24.3,69.706,4.3,20.5
26.4,69.386,4.2,20.5
28.4,69.036,4.2,20.7
30.4,68.636,7.1,20.7
32.4,68.186,16.1,20.7
34.5,67.766,39,20.8
36.5,67.336,76.7,20.9
38.5,66.736,124.2,20.9
40.9,66.396,157.9,21
42.6,65.956,219.3,21.1
44.6,65.486,246.2,21.2
46.6,64.996,279.6,21.2
48.7,64.466,315.6,21.3
50.7,63.966,342.1,21.4
52.7,63.456,372.6,21.5
54.8,62.896,384.7,21.6
56.8,62.356,425.7,21.7
58.8,61.846,435.8,21.9
60.8,61.236,450.3,22
62.9,60.676,486,22.1
64.9,60.066,503.3,22.3
66.9,59.486,505.1,22.4
69,58.926,532.5,22.6
71,58.406,562.4,22.7
73,57.866,525,22.9
75,57.296,539.2,23
77.1,56.736,557.6,23.2
79.1,56.196,559.4,23.4
81.1,55.716,597.3,23.6
83.1,55.186,593.4,23.9
85.2,54.656,583.3,24.1
87.2,54.126,578.9,24.4
89.2,53.586,615.4,24.7
91.3,53.036,615.6,25
93.3,52.526,608.1,25.4
95.3,51.956,614,25.7
97.3,51.386,608.1,26
99.4,50.656,632.1,26.4
101.7,50.266,621.6,26.6
103.4,49.736,645.9,26.9
105.5,49.186,649.4,27.2
107.5,48.666,641.4,27.5
109.5,48.106,646.1,27.8
111.5,47.536,641.5,28.1
113.6,46.986,660.5,28.3
115.6,46.446,643.7,28.6
117.6,45.866,642.2,28.9
119.7,45.286,669.6,29.2
121.7,44.726,643.7,29.5
123.7,44.136,638.6,29.8
125.7,43.556,682.7,30.1
127.8,42.986,689.7,30.5
129.8,42.396,669.7,30.7
131.8,41.776,700.4,31
133.8,41.176,699,31.4
135.9,40.576,654.1,31.6
137.9,39.976,693.5,31.9
139.9,39.176,700.3,32.3
142.3,38.716,671.9,32.6
144,38.116,730.7,32.9
146,37.496,714.1,33.2
148,36.866,697.6,33.5
150.1,36.226,694.9,33.8
152.1,35.576,736.5,34.2
154.1,34.946,706.6,34.5
156.2,34.266,688.1,34.8
158.2,33.606,730.6,35.1
160.2,32.916,732.1,35.5
162.2,32.226,713.5,35.8
164.3,31.526,721.7,36.1
166.3,30.806,759.4,36.4
168.3,30.096,717.5,36.7
170.4,29.376,751.6,37
172.4,28.646,772.5,37.4
174.4,27.906,764.3,37.7
176.4,27.176,776.8,38
178.5,26.466,751.2,38.4
180.5,25.766,817.2,38.8
182.5,25.016,803.5,39.2
184.5,24.286,816.4,39.7
186.6,23.566,842.4,40.1
188.6,22.816,830.3,40.7
190.6,22.046,816,41.2
192.7,21.336,817.4,41.9
194.7,20.596,864.8,42.5
196.7,19.856,854.4,43.1
198.7,19.136,867.2,43.8
200.8,18.406,868.2,44.5
202.8,17.676,937.8,45.2
204.8,16.976,856.4,45.9
206.9,16.266,891.4,46.7
208.9,15.526,908.8,47.5
210.9,14.796,880.5,48.2
212.9,14.146,940.3,49
215,13.516,944.6,49.8
217,12.936,934.2,50.6
219,12.406,1003.1,51.4
221.1,11.916,998.8,52.3
223.1,11.466,1026.3,53.2
225.1,11.036,1027.8,54.2
227.1,10.636,1018.2,55.2
229.2,10.276,1027.5,56.2
231.2,9.926,978.4,57.3
233.2,9.666,966.9,58.3
235.3,9.376,933.3,59.4
237.3,9.096,903,60.6
239.3,8.806,844.5,61.6
241.3,8.456,806.1,63
243.7,8.266,770.5,63.9
245.4,8.026,702,65
247.4,7.826,684.4,66.2
249.4,7.636,669.1,67.4
251.5,7.386,580.1,68.6
253.5,7.166,567.6,69.8
255.5,6.966,530.8,71.1
257.6,6.796,483.4,72.3
259.6,6.636,451.4,73.5
261.6,6.446,425,74.8
263.6,6.276,409.5,76
265.7,6.086,380.2,77.3
267.7,5.826,366.5,78.5
269.7,5.686,361.8,79.8
271.8,5.506,330.9,81.1
273.8,5.356,316,82.4
275.8,5.176,312,83.7
277.8,5.006,282.9,85
279.9,4.896,275.1,86.3
281.9,4.806,267.1,87.6
283.9,4.706,252.7,88.9
286,4.636,243.5,90.3
288,4.586,237.1,91.6
290,4.506,230.6,92.9
292,4.456,230.2,94.2
294.1,4.436,212.5,95.5
296.1,4.346,213.3,96.7
298.1,4.266,198.6,97.7
300.1,4.206,197.9,98.1
302.2,4.106,196.2,97.5
304.2,4.046,189.2,97.4
306.2,4.006,186.3,97.6
308.3,3.956,179.1,98.1
310.3,3.936,168.6,99.2
312.3,3.876,166.7,100.4
314.3,3.846,161.8,101.6
316.4,3.916,155,102.9
318.4,3.886,149.9,104.7
320.4,3.806,144.6,106.6
322.5,3.766,140.4,108.4
324.5,3.796,137.5,110.1
326.5,3.756,131.9,111.6
328.5,3.756,124.2,113
330.6,3.696,117.2,114.3
332.6,3.676,112,115.6
334.6,3.686,113.4,116.8
336.7,3.686,103,117.8
338.7,3.756,101,118.9
340.7,3.796,96.3,119.9
342.7,3.856,91.4,121.1
345.2,3.866,91.5,122
346.8,3.866,85.3,123
348.8,3.846,81.6,124
350.8,3.816,81,124.9
352.9,3.806,76.7,125.9
354.9,3.756,72.4,126.9
356.9,3.726,71.2,127.8
359,3.716,70.4,128.8
361,3.706,67.7,129.8
363,3.696,65.8,130.8
365,3.676,65.9,131.7
367.1,3.656,63.7,132.6
369.1,3.626,62.7,133.5
371.1,3.586,62.1,134.4
373.2,3.576,58.9,135.2
375.2,3.516,59.6,136.1
377.2,3.476,57.1,137.1
379.2,3.466,57.4,137.9
381.3,3.416,55.3,138.8
383.3,3.406,54.4,139.6
385.3,3.376,52.4,140.5
387.4,3.366,51.7,141.4
389.4,3.356,52.1,142.3
391.4,3.376,49.5,143.2
393.4,3.376,48.9,144.1
395.5,3.366,49.7,144.9
397.5,3.356,46.8,145.8
399.5,3.376,47,146.7
401.5,3.406,46.7,147.5
403.6,3.396,43.8,148.3
405.6,3.356,44.4,149.2
407.6,3.346,44.2,150
409.7,3.326,45,150.8
411.7,3.306,41.9,151.6
413.7,3.296,41.9,152.5
415.7,3.306,42.4,153.2
417.8,3.296,39.9,154
419.8,3.276,40.2,154.8
421.8,3.266,37.1,155.6
423.9,3.186,36.9,156.3
425.9,3.166,37.1,157.1
427.9,3.146,35.5,157.9
429.9,3.156,35.2,158.7
432,3.166,32.5,159.5
434,3.136,32,160.2
436,3.126,32.4,161
438.1,3.146,32,161.8
440.1,3.116,29.7,162.5
442.1,3.116,30,163.2
444.1,3.106,30.2,164.2
446.6,3.096,30.4,164.8
448.2,3.096,27.3,165.5
450.2,3.086,27.9,166.3
452.2,3.036,27.6,167
454.3,3.016,24.8,167.7
456.3,2.986,25.3,168.4
458.3,3.006,24.9,169.2
460.4,2.996,22.4,169.8
462.4,3.016,22.1,170.5
464.4,2.996,22.3,171.3
466.4,3.006,19.8,172
468.5,2.996,20,172.6
470.5,2.996,16.8,173.3
472.5,3.006,17,174
474.6,2.986,17.2,174.7
476.6,2.966,14.1,175.3
478.6,2.966,14.5,176
480.6,2.986,14.8,176.7
482.7,2.976,14.8,177.3
484.7,2.976,11.6,178
486.7,2.986,11.6,178.6
488.8,2.976,11.9,179.3
490.8,2.956,11.9,179.9
492.8,2.946,11.7,180.6
494.8,2.946,9.1,181.2
496.9,2.946,9,181.9
498.9,2.956,9.4,182.5
500.9,2.936,9.3,183.2
502.9,2.926,9.3,183.8
505,2.936,9.2,184.4
507,2.936,9.6,185.1
509,2.956,9.5,185.7
511.1,2.946,6.4,186.3
513.1,2.926,6.6,186.9
515.1,2.936,6.6,187.6
517.1,2.926,6.9,188.2
519.2,2.946,6.8,188.8
521.2,2.946,7.1,189.4
523.2,2.946,6.9,190
525.3,2.916,7,190.6
527.3,2.946,7.2,191.3
529.3,2.946,4.2,191.9
531.3,2.956,4.1,192.4
533.4,2.946,4.1,193.1
535.4,2.926,4.2,193.7
537.4,2.916,4.2,194.2
539.5,2.926,4.3,194.8
541.5,2.946,4.4,195.4
543.5,2.936,4.3,196
545.5,2.916,4.4,196.7
548.1,2.926,4.4,197.2
549.6,2.916,4.4,197.8
551.6,2.926,1.2,198.4
553.6,2.946,1.4,199
554.7,2.946,1.2,199.2