File: Non-charring/PMMA/Sandia/Sandia_TGA_Ar_50K_2.csv
Time,Temperature,Mass
[s],[K],[mg]
1200.1,306.94,1.00E-03
1303.854,308.64,3.98E-03
1323.927,310.34,1.14E-03
1337.325,312.04,1.71E-04
1347.76,313.74,1.54E-03
1356.46,315.44,2.98E-03
1364.02,317.14,1.07E-03
1370.71,318.84,1.78E-05
1376.754,320.54,1.15E-03
1382.33,322.24,1.00E-03
1387.48,323.94,1.99E-03
1392.34,325.64,1.68E-03
1396.91,327.34,9.92E-04
1401.24,329.04,1.85E-03
1405.36,330.74,1.48E-03
1409.31,332.44,2.00E-03
1413.087,334.14,-9.85E-04
1416.72,335.84,1.61E-04
1420.23,337.54,8.85E-04
1423.626,339.24,1.57E-03
1426.902,340.94,1.49E-05
1430.1,342.64,2.72E-05
1433.217,344.34,-6.87E-04
1436.26,346.04,-8.45E-04
1439.232,347.74,-1.28E-03
1442.14,349.44,-1.78E-03
1444.98,351.14,-1.09E-03
1447.77,352.84,-1.17E-03
1450.488,354.54,9.39E-04
1453.16,356.24,1.26E-03
1455.79,357.94,2.37E-04
1458.37,359.64,1.61E-04
1460.9,361.34,-1.00E-03
1463.39,363.04,-1.96E-03
1465.845,364.74,-3.11E-03
1468.26,366.44,-3.11E-03
1470.636,368.14,-1.65E-03
1472.98,369.84,-3.63E-03
1475.29,371.54,-5.02E-03
1477.57,373.24,-7.36E-03
1479.82,374.94,-4.79E-03
1482.06,376.64,-5.09E-03
1484.26,378.34,-3.74E-03
1486.44,380.04,-4.29E-03
1488.61,381.74,-5.82E-03
1490.75,383.44,-6.04E-03
1492.88,385.14,-5.17E-03
1494.98,386.84,-8.00E-03
1497.069,388.54,-7.88E-03
1499.14,390.24,-7.33E-03
1501.19,391.94,-8.00E-03
1503.23,393.64,-9.68E-03
1505.25,395.34,-9.99E-03
1507.24,397.04,-9.90E-03
1509.23,398.74,-1.09E-02
1511.19,400.44,-1.30E-02
1513.15,402.14,-1.24E-02
1515.081,403.84,-1.40E-02
1517.004,405.54,-1.49E-02
1518.9,407.24,-1.60E-02
1520.79,408.94,-1.71E-02
1522.66,410.64,-1.80E-02
1524.525,412.34,-1.81E-02
1526.37,414.04,-1.90E-02
1528.2,415.74,-2.00E-02
1530.03,417.44,-2.20E-02
1531.842,419.14,-2.41E-02
1533.64,420.84,-2.40E-02
1535.43,422.54,-2.82E-02
1537.212,424.24,-2.90E-02
1538.98,425.94,-3.11E-02
1540.74,427.64,-3.20E-02
1542.5,429.34,-3.50E-02
1544.24,431.04,-3.85E-02
1545.98,432.74,-4.11E-02
1547.7,434.44,-4.30E-02
1549.42,436.14,-4.63E-02
1551.13,437.84,-4.89E-02
1552.84,439.54,-5.30E-02
1554.54,441.24,-5.69E-02
1556.229,442.94,-6.21E-02
1557.912,444.64,-6.61E-02
1559.59,446.34,-7.34E-02
1561.257,448.04,-7.98E-02
1562.92,449.74,-8.70E-02
1564.575,451.44,-9.25E-02
1566.222,453.14,-0.10064
1567.86,454.84,-0.10787
1569.49,456.54,-0.11498
1571.12,458.24,-0.12202
1572.73,459.94,-0.12909
1574.35,461.64,-0.13609
1575.951,463.34,-0.14211
1577.55,465.04,-0.14909
1579.14,466.74,-0.15484
1580.73,468.44,-0.16108
1582.31,470.14,-0.16701
1583.89,471.84,-0.17197
1585.458,473.54,-0.17795
1587.02,475.24,-0.18175
1588.59,476.94,-0.18788
1590.15,478.64,-0.19414
1591.7,480.34,-0.2
1593.246,482.04,-0.20452
1594.79,483.74,-0.20991
1596.33,485.44,-0.2161
1597.87,487.14,-0.21998
1599.4,488.84,-0.22609
1600.93,490.54,-0.23213
1602.46,492.24,-0.23487
1603.98,493.94,-0.23934
1605.49,495.64,-0.24399
1607,497.34,-0.24809
1608.52,499.04,-0.2521
1610.02,500.74,-0.25497
1611.52,502.44,-0.25812
1613.02,504.14,-0.25987
1614.52,505.84,-0.26114
1616.01,507.54,-0.26407
1617.5,509.24,-0.264
1618.98,510.94,-0.2671
1620.46,512.64,-0.26792
1621.93,514.34,-0.26794
1623.41,516.04,-0.26901
1624.878,517.74,-0.27001
1626.34,519.44,-0.27176
1627.8,521.14,-0.27187
1629.27,522.84,-0.27296
1630.73,524.54,-0.274
1632.18,526.24,-0.27397
1633.63,527.94,-0.27715
1635.08,529.64,-0.27691
1636.53,531.34,-0.27724
1637.97,533.04,-0.28002
1639.42,534.74,-0.28162
1640.85,536.44,-0.28381
1642.29,538.14,-0.28601
1643.73,539.84,-0.28813
1645.16,541.54,-0.2912
1646.59,543.24,-0.29302
1648.01,544.94,-0.29488
1649.44,546.64,-0.29974
1650.86,548.34,-0.30301
1652.28,550.04,-0.3089
1653.7,551.74,-0.31401
1655.12,553.44,-0.31911
1656.54,555.14,-0.32415
1657.95,556.84,-0.32883
1659.37,558.54,-0.33654
1660.78,560.24,-0.34442
1662.19,561.94,-0.35302
1663.6,563.64,-0.36413
1665.01,565.34,-0.37256
1666.42,567.04,-0.38321
1667.82,568.74,-0.39126
1669.22,570.44,-0.40065
1670.62,572.14,-0.40957
1672.02,573.84,-0.41929
1673.43,575.54,-0.42833
1674.82,577.24,-0.43936
1676.22,578.94,-0.44808
1677.62,580.64,-0.46015
1679.01,582.34,-0.46998
1680.4,584.04,-0.48106
1681.8,585.74,-0.49085
1683.19,587.44,-0.50445
1684.58,589.14,-0.51797
1685.97,590.84,-0.53076
1687.36,592.54,-0.54456
1688.75,594.24,-0.55865
1690.13,595.94,-0.57353
1691.52,597.64,-0.59136
1692.91,599.34,-0.60811
1694.3,601.04,-0.62696
1695.68,602.74,-0.64774
1697.07,604.44,-0.67054
1698.46,606.14,-0.69358
1699.842,607.84,-0.71928
1701.23,609.54,-0.74493
1702.62,611.24,-0.77424
1704.003,612.94,-0.80722
1705.39,614.64,-0.83739
1706.77,616.34,-0.87172
1708.16,618.04,-0.90945
1709.55,619.74,-0.94953
1710.936,621.44,-0.99024
1712.33,623.14,-1.03671
1713.714,624.84,-1.08643
1715.11,626.54,-1.13623
1716.498,628.24,-1.18895
1717.89,629.94,-1.40166
1719.28,631.64,-1.47008
1720.68,633.34,-1.53725
1722.07,635.04,-1.60411
1723.46,636.74,-1.68176
1724.86,638.44,-1.76212
1726.26,640.14,-1.83751
1727.661,641.84,-1.92377
1729.06,643.54,-2.00613
1730.47,645.24,-2.08073
1731.873,646.94,-2.16959
1733.28,648.64,-2.26444
1734.69,650.34,-2.36312
1736.1,652.04,-2.45793
1737.51,653.74,-2.56091
1738.93,655.44,-2.66512
1740.34,657.14,-2.75906
1741.758,658.84,-2.85318
1743.17,660.54,-2.94962
1744.6,662.24,-3.04329
1746.02,663.94,-3.14224
1747.45,665.64,-3.24057
1748.87,667.34,-3.34106
1750.31,669.04,-3.44238
1751.74,670.74,-3.54268
1753.17,672.44,-3.62929
1754.6,674.14,-3.71986
1756.04,675.84,-3.81065
1757.48,677.54,-3.89695
1758.927,679.24,-3.97745
1760.37,680.94,-4.05817
1761.82,682.64,-4.13183
1763.27,684.34,-4.20825
1764.72,686.04,-4.27762
1766.18,687.74,-4.33842
1767.64,689.44,-4.39191
1769.09,691.14,-4.43676
1770.55,692.84,-4.48129
1772.01,694.54,-4.51806
1773.48,696.24,-4.55538
1774.94,697.94,-4.58189
1776.402,699.64,-4.60661
1777.87,701.34,-4.62762
1779.34,703.04,-4.64327
1780.82,704.74,-4.65616
1782.29,706.44,-4.66694
1783.77,708.14,-4.67448
1785.25,709.84,-4.68471
1786.728,711.54,-4.69622
1788.21,713.24,-4.70751
1789.7,714.94,-4.717
1791.19,716.64,-4.72467
1792.68,718.34,-4.72991
1794.18,720.04,-4.73713
1795.68,721.74,-4.73995
1797.18,723.44,-4.74468
1798.68,725.14,-4.74696
1800.19,726.84,-4.751
1801.7,728.54,-4.752
1803.21,730.24,-4.75508
1804.73,731.94,-4.75697
1806.25,733.64,-4.75899
1807.77,735.34,-4.75996
1809.303,737.04,-4.759
1810.83,738.74,-4.76107
1812.37,740.44,-4.76001
1813.91,742.14,-4.761
1815.447,743.84,-4.76097
1816.99,745.54,-4.75999
1818.54,747.24,-4.76093
1820.09,748.94,-4.76099
1821.65,750.64,-4.76168
1823.21,752.34,-4.76158
1824.77,754.04,-4.75992
1826.34,755.74,-4.76096
1827.91,757.44,-4.75994
1829.48,759.14,-4.76101
1831.07,760.84,-4.76203
1832.649,762.54,-4.76102
1834.24,764.24,-4.76106
1835.83,765.94,-4.76202
1837.42,767.64,-4.76114
1839.02,769.34,-4.76297
1840.62,771.04,-4.76201
1842.23,772.74,-4.76299
1843.85,774.44,-4.76202
1845.46,776.14,-4.762
1847.08,777.84,-4.763
1848.705,779.54,-4.76202
1850.34,781.24,-4.76298
1851.966,782.94,-4.76176
1853.6,784.64,-4.76262
1855.245,786.34,-4.76199
1856.889,788.04,-4.763
1858.53,789.74,-4.762
1860.18,791.44,-4.76295
1861.84,793.14,-4.76099
1863.5,794.84,-4.76102
1865.169,796.54,-4.76189
1866.84,798.24,-4.76273
1868.52,799.94,-4.7629
1870.19,801.64,-4.762
1871.874,803.34,-4.763
1873.56,805.04,-4.76201
1875.25,806.74,-4.76177
1876.95,808.44,-4.76183
1878.642,810.14,-4.76301
1880.35,811.84,-4.762
1882.05,813.54,-4.76301
1883.77,815.24,-4.762
1883.9,815.34,-4.762