File: Non-charring/PMMA/Sandia/SANDIA_TGA_Ar_50K_3.csv
Time,Temperature,Mass
[s],[K],[mg]
1200.1,306.944,-6.00E-03
1303.16,308.644,-1.69E-02
1323.43,310.344,-2.05E-02
1336.947,312.044,-2.60E-02
1347.47,313.744,-2.62E-02
1356.21,315.444,-2.75E-02
1363.758,317.144,-2.85E-02
1370.49,318.844,-3.10E-02
1376.56,320.544,-3.29E-02
1382.16,322.244,-3.37E-02
1387.35,323.944,-3.28E-02
1392.23,325.644,-3.26E-02
1396.818,327.344,-3.31E-02
1401.17,329.044,-3.38E-02
1405.28,330.744,-3.30E-02
1409.25,332.444,-3.35E-02
1413.05,334.144,-3.57E-02
1416.69,335.844,-3.50E-02
1420.23,337.544,-3.63E-02
1423.64,339.244,-3.46E-02
1426.93,340.944,-3.48E-02
1430.157,342.644,-3.71E-02
1433.3,344.344,-3.80E-02
1436.37,346.044,-3.81E-02
1439.36,347.744,-3.66E-02
1442.28,349.444,-3.80E-02
1445.14,351.144,-3.80E-02
1447.94,352.844,-3.85E-02
1450.695,354.544,-3.70E-02
1453.39,356.244,-3.90E-02
1456.04,357.944,-4.05E-02
1458.64,359.644,-4.04E-02
1461.19,361.344,-3.99E-02
1463.71,363.044,-4.20E-02
1466.18,364.744,-4.16E-02
1468.6,366.444,-4.15E-02
1471,368.144,-4.42E-02
1473.36,369.844,-4.25E-02
1475.7,371.544,-4.40E-02
1478,373.244,-4.41E-02
1480.27,374.944,-4.41E-02
1482.52,376.644,-4.39E-02
1484.74,378.344,-4.40E-02
1486.947,380.044,-4.38E-02
1489.13,381.744,-4.18E-02
1491.3,383.444,-4.50E-02
1493.44,385.144,-4.47E-02
1495.57,386.844,-4.33E-02
1497.67,388.544,-4.40E-02
1499.75,390.244,-4.55E-02
1501.82,391.944,-4.38E-02
1503.88,393.644,-4.50E-02
1505.91,395.344,-4.70E-02
1507.929,397.044,-4.60E-02
1509.93,398.744,-4.73E-02
1511.91,400.444,-4.80E-02
1513.87,402.144,-5.01E-02
1515.82,403.844,-4.90E-02
1517.75,405.544,-5.10E-02
1519.67,407.244,-5.20E-02
1521.58,408.944,-5.30E-02
1523.47,410.644,-5.40E-02
1525.341,412.344,-5.50E-02
1527.207,414.044,-5.61E-02
1529.05,415.744,-5.61E-02
1530.89,417.444,-5.80E-02
1532.71,419.144,-5.80E-02
1534.53,420.844,-5.79E-02
1536.33,422.544,-6.00E-02
1538.118,424.244,-6.20E-02
1539.9,425.944,-6.30E-02
1541.67,427.644,-6.30E-02
1543.428,429.344,-6.60E-02
1545.19,431.044,-6.70E-02
1546.93,432.744,-6.80E-02
1548.669,434.444,-6.90E-02
1550.4,436.144,-7.10E-02
1552.12,437.844,-7.30E-02
1553.83,439.544,-7.40E-02
1555.53,441.244,-7.60E-02
1557.23,442.944,-7.80E-02
1558.93,444.644,-8.01E-02
1560.61,446.344,-8.31E-02
1562.28,448.044,-8.61E-02
1563.951,449.744,-8.84E-02
1565.61,451.444,-9.20E-02
1567.26,453.144,-9.61E-02
1568.91,454.844,-0.10001
1570.54,456.544,-0.10436
1572.171,458.244,-0.11061
1573.79,459.944,-0.11592
1575.41,461.644,-0.12221
1577.02,463.344,-0.12727
1578.62,465.044,-0.13365
1580.22,466.744,-0.13917
1581.81,468.444,-0.14507
1583.391,470.144,-0.14988
1584.97,471.844,-0.15564
1586.544,473.544,-0.16036
1588.11,475.244,-0.16606
1589.67,476.944,-0.17093
1591.24,478.644,-0.17744
1592.79,480.344,-0.18145
1594.341,482.044,-0.18733
1595.88,483.744,-0.19398
1597.43,485.444,-0.19889
1598.961,487.144,-0.20619
1600.494,488.844,-0.21198
1602.02,490.544,-0.21946
1603.55,492.244,-0.22724
1605.06,493.944,-0.23694
1606.58,495.644,-0.24633
1608.09,497.344,-0.25599
1609.6,499.044,-0.2605
1611.1,500.744,-0.265
1612.6,502.444,-0.2691
1614.1,504.144,-0.273
1615.59,505.844,-0.27649
1617.08,507.544,-0.2788
1618.56,509.244,-0.28128
1620.04,510.944,-0.28405
1621.52,512.644,-0.28497
1623,514.344,-0.28697
1624.47,516.044,-0.28814
1625.94,517.744,-0.29007
1627.401,519.444,-0.2905
1628.862,521.144,-0.29197
1630.317,522.844,-0.29309
1631.77,524.544,-0.29238
1633.22,526.244,-0.29499
1634.67,527.944,-0.29702
1636.12,529.644,-0.29607
1637.56,531.344,-0.29762
1639,533.044,-0.29939
1640.44,534.744,-0.30243
1641.87,536.444,-0.30379
1643.307,538.144,-0.30599
1644.74,539.844,-0.30811
1646.16,541.544,-0.30885
1647.58,543.244,-0.31164
1649.01,544.944,-0.3148
1650.43,546.644,-0.31901
1651.84,548.344,-0.32301
1653.26,550.044,-0.32868
1654.67,551.744,-0.33198
1656.08,553.444,-0.33696
1657.491,555.144,-0.34196
1658.9,556.844,-0.34897
1660.3,558.544,-0.35399
1661.7,560.244,-0.36199
1663.107,561.944,-0.37206
1664.51,563.644,-0.38109
1665.91,565.344,-0.39105
1667.3,567.044,-0.40299
1668.7,568.744,-0.41
1670.09,570.444,-0.41896
1671.483,572.144,-0.42891
1672.88,573.844,-0.43803
1674.27,575.544,-0.44663
1675.66,577.244,-0.45586
1677.05,578.944,-0.46673
1678.44,580.644,-0.47824
1679.823,582.344,-0.48833
1681.209,584.044,-0.49906
1682.59,585.744,-0.51036
1683.98,587.444,-0.52082
1685.36,589.144,-0.53358
1686.738,590.844,-0.54633
1688.12,592.544,-0.56031
1689.504,594.244,-0.57404
1690.884,595.944,-0.5908
1692.27,597.644,-0.6087
1693.65,599.344,-0.62516
1695.027,601.044,-0.6446
1696.41,602.744,-0.66449
1697.787,604.444,-0.68672
1699.17,606.144,-0.71042
1700.544,607.844,-0.73497
1701.92,609.544,-0.76139
1703.31,611.244,-0.79115
1704.69,612.944,-0.8216
1706.064,614.644,-0.85517
1707.45,616.344,-0.8912
1708.83,618.044,-0.9223
1710.207,619.744,-0.9616
1711.59,621.444,-1.00485
1712.97,623.144,-1.04962
1714.353,624.844,-1.09393
1715.74,626.544,-1.14502
1717.12,628.244,-1.19667
1718.5,629.944,-1.25066
1719.89,631.644,-1.4635
1721.28,633.344,-1.52993
1722.66,635.044,-1.59863
1724.05,636.744,-1.66833
1725.44,638.444,-1.7393
1726.833,640.144,-1.81555
1728.23,641.844,-1.8936
1729.62,643.544,-1.97892
1731.02,645.244,-2.06205
1732.41,646.944,-2.13931
1733.811,648.644,-2.22452
1735.21,650.344,-2.31836
1736.61,652.044,-2.4082
1738.02,653.744,-2.49865
1739.42,655.444,-2.59041
1740.828,657.144,-2.6851
1742.24,658.844,-2.77541
1743.648,660.544,-2.86518
1745.06,662.244,-2.95664
1746.48,663.944,-3.04428
1747.89,665.644,-3.13664
1749.315,667.344,-3.23398
1750.74,669.044,-3.32751
1752.16,670.744,-3.42047
1753.59,672.444,-3.5181
1755.02,674.144,-3.62144
1756.44,675.844,-3.69332
1757.877,677.544,-3.7787
1759.31,679.244,-3.86763
1760.74,680.944,-3.94604
1762.18,682.644,-4.01968
1763.62,684.344,-4.08774
1765.07,686.044,-4.16003
1766.517,687.744,-4.22692
1767.97,689.444,-4.28424
1769.41,691.144,-4.3362
1770.86,692.844,-4.37872
1772.31,694.544,-4.4196
1773.77,696.244,-4.45409
1775.22,697.944,-4.48378
1776.68,699.644,-4.51252
1778.14,701.344,-4.53458
1779.6,703.044,-4.55108
1781.055,704.744,-4.56083
1782.52,706.444,-4.5701
1783.99,708.144,-4.57735
1785.46,709.844,-4.58567
1786.93,711.544,-4.59515
1788.4,713.244,-4.60436
1789.87,714.944,-4.61277
1791.35,716.644,-4.62099
1792.82,718.344,-4.62612
1794.3,720.044,-4.632
1795.78,721.744,-4.63434
1797.264,723.444,-4.63886
1798.75,725.144,-4.63989
1800.24,726.844,-4.64407
1801.73,728.544,-4.64601
1803.23,730.244,-4.64817
1804.73,731.944,-4.64914
1806.237,733.644,-4.64891
1807.75,735.344,-4.65006
1809.27,737.044,-4.65
1810.79,738.744,-4.65088
1812.32,740.444,-4.65099
1813.85,742.144,-4.65198
1815.38,743.844,-4.65098
1816.92,745.544,-4.65105
1818.46,747.244,-4.65185
1820.01,748.944,-4.65197
1821.56,750.644,-4.6511
1823.11,752.344,-4.652
1824.67,754.044,-4.65
1826.229,755.744,-4.65196
1827.79,757.444,-4.65107
1829.37,759.144,-4.65004
1830.94,760.844,-4.65201
1832.52,762.544,-4.651
1834.09,764.244,-4.651
1835.68,765.944,-4.65097
1837.26,767.644,-4.65194
1838.85,769.344,-4.65091
1840.45,771.044,-4.65255
1842.05,772.744,-4.652
1843.66,774.444,-4.65098
1845.27,776.144,-4.651
1846.88,777.844,-4.651
1848.5,779.544,-4.65099
1850.12,781.244,-4.65108
1851.75,782.944,-4.65154
1853.38,784.644,-4.651
1855.01,786.344,-4.65103
1856.65,788.044,-4.651
1858.296,789.744,-4.651
1859.94,791.444,-4.65201
1861.6,793.144,-4.65005
1863.25,794.844,-4.65158
1864.91,796.544,-4.65191
1866.58,798.244,-4.65
1868.25,799.944,-4.65195
1869.927,801.644,-4.651
1871.61,803.344,-4.65201
1873.287,805.044,-4.64997
1874.97,806.744,-4.65005
1876.66,808.444,-4.65098
1878.36,810.144,-4.65199
1880.06,811.844,-4.651
1881.76,813.544,-4.65053
1883.466,815.244,-4.65101
1883.91,815.644,-4.651