File: Non-charring/PMMA/Sandia/SANDIA_TGA_Ar_50K_1.csv
Time,Temperature,Mass
[s],[K],[mg]
1200.1,306.872,-2.00E-03
1303.65,308.572,-8.09E-03
1323.87,310.272,-1.18E-02
1337.42,311.972,-1.43E-02
1347.96,313.672,-1.63E-02
1356.75,315.372,-1.72E-02
1364.37,317.072,-1.85E-02
1371.15,318.772,-2.03E-02
1377.303,320.472,-2.10E-02
1382.94,322.172,-2.29E-02
1388.18,323.872,-2.23E-02
1393.1,325.572,-2.10E-02
1397.74,327.272,-2.21E-02
1402.13,328.972,-2.12E-02
1406.31,330.672,-2.31E-02
1410.32,332.372,-2.38E-02
1414.15,334.072,-2.40E-02
1417.85,335.772,-2.48E-02
1421.41,337.472,-2.63E-02
1424.87,339.172,-2.67E-02
1428.21,340.872,-2.59E-02
1431.462,342.572,-2.60E-02
1434.64,344.272,-2.62E-02
1437.74,345.972,-2.70E-02
1440.76,347.672,-2.74E-02
1443.7,349.372,-2.80E-02
1446.59,351.072,-2.92E-02
1449.43,352.772,-2.95E-02
1452.21,354.472,-3.01E-02
1454.93,356.172,-2.98E-02
1457.607,357.872,-2.89E-02
1460.235,359.572,-2.98E-02
1462.809,361.272,-3.23E-02
1465.34,362.972,-3.09E-02
1467.837,364.672,-3.30E-02
1470.29,366.372,-3.20E-02
1472.697,368.072,-3.30E-02
1475.085,369.772,-3.29E-02
1477.43,371.472,-3.43E-02
1479.75,373.172,-3.45E-02
1482.05,374.872,-3.51E-02
1484.31,376.572,-3.31E-02
1486.55,378.272,-3.22E-02
1488.765,379.972,-3.31E-02
1490.961,381.672,-3.48E-02
1493.14,383.372,-3.39E-02
1495.3,385.072,-3.40E-02
1497.435,386.772,-3.59E-02
1499.55,388.472,-3.69E-02
1501.65,390.172,-3.50E-02
1503.73,391.872,-3.70E-02
1505.79,393.572,-3.74E-02
1507.83,395.272,-3.80E-02
1509.86,396.972,-3.68E-02
1511.87,398.672,-3.90E-02
1513.86,400.372,-3.89E-02
1515.83,402.072,-3.90E-02
1517.78,403.772,-4.10E-02
1519.72,405.472,-4.20E-02
1521.64,407.172,-4.30E-02
1523.54,408.872,-4.40E-02
1525.44,410.572,-4.50E-02
1527.31,412.272,-4.60E-02
1529.18,413.972,-4.58E-02
1531.029,415.672,-4.80E-02
1532.86,417.372,-4.80E-02
1534.69,419.072,-4.89E-02
1536.5,420.772,-5.20E-02
1538.31,422.472,-5.40E-02
1540.1,424.172,-5.40E-02
1541.88,425.872,-5.59E-02
1543.65,427.572,-6.00E-02
1545.41,429.272,-6.20E-02
1547.16,430.972,-6.40E-02
1548.9,432.672,-6.70E-02
1550.64,434.372,-6.88E-02
1552.36,436.072,-7.29E-02
1554.08,437.772,-7.70E-02
1555.79,439.472,-8.09E-02
1557.49,441.172,-8.60E-02
1559.18,442.872,-9.09E-02
1560.87,444.572,-9.68E-02
1562.544,446.272,-0.1041
1564.21,447.972,-0.1108
1565.88,449.672,-0.11981
1567.53,451.372,-0.12813
1569.18,453.072,-0.13938
1570.82,454.772,-0.15129
1572.441,456.472,-0.16277
1574.07,458.172,-0.17285
1575.68,459.872,-0.17901
1577.28,461.572,-0.18696
1578.88,463.272,-0.1939
1580.481,464.972,-0.19895
1582.071,466.672,-0.20578
1583.652,468.372,-0.21062
1585.23,470.072,-0.21601
1586.79,471.772,-0.2211
1588.359,473.472,-0.22699
1589.92,475.172,-0.23306
1591.47,476.872,-0.23978
1593.02,478.572,-0.24361
1594.56,480.272,-0.25025
1596.102,481.972,-0.257
1597.64,483.672,-0.2609
1599.16,485.372,-0.26758
1600.69,487.072,-0.27498
1602.21,488.772,-0.2787
1603.72,490.472,-0.28611
1605.23,492.172,-0.2914
1606.74,493.872,-0.29488
1608.25,495.572,-0.30038
1609.75,497.272,-0.30398
1611.24,498.972,-0.30744
1612.731,500.672,-0.31108
1614.22,502.372,-0.31288
1615.7,504.072,-0.315
1617.18,505.772,-0.31615
1618.659,507.472,-0.31799
1620.129,509.172,-0.32099
1621.59,510.872,-0.32108
1623.06,512.572,-0.32201
1624.52,514.272,-0.32293
1625.97,515.972,-0.32497
1627.43,517.672,-0.32631
1628.88,519.372,-0.32603
1630.32,521.072,-0.32799
1631.76,522.772,-0.32709
1633.2,524.472,-0.32899
1634.64,526.172,-0.33173
1636.07,527.872,-0.33192
1637.51,529.572,-0.33302
1638.93,531.272,-0.33512
1640.36,532.972,-0.33818
1641.78,534.672,-0.33915
1643.2,536.372,-0.33979
1644.61,538.072,-0.34421
1646.03,539.772,-0.34632
1647.438,541.472,-0.34852
1648.85,543.172,-0.3528
1650.25,544.872,-0.35818
1651.66,546.572,-0.36169
1653.06,548.272,-0.36691
1654.47,549.972,-0.37176
1655.862,551.672,-0.37668
1657.26,553.372,-0.38177
1658.658,555.072,-0.38868
1660.053,556.772,-0.39902
1661.45,558.472,-0.40969
1662.837,560.172,-0.41827
1664.226,561.872,-0.42833
1665.61,563.572,-0.43815
1667,565.272,-0.4484
1668.38,566.972,-0.4569
1669.77,568.672,-0.46635
1671.15,570.372,-0.47645
1672.53,572.072,-0.48734
1673.91,573.772,-0.49712
1675.29,575.472,-0.50991
1676.66,577.172,-0.52073
1678.04,578.872,-0.53336
1679.41,580.572,-0.54297
1680.79,582.272,-0.55496
1682.16,583.972,-0.56755
1683.53,585.672,-0.58029
1684.9,587.372,-0.59499
1686.27,589.072,-0.60969
1687.64,590.772,-0.62536
1689,592.472,-0.64151
1690.37,594.172,-0.65809
1691.74,595.872,-0.67665
1693.1,597.572,-0.69607
1694.47,599.272,-0.71753
1695.83,600.972,-0.74056
1697.2,602.672,-0.76635
1698.56,604.372,-0.79309
1699.93,606.072,-0.8216
1701.29,607.772,-0.85085
1702.65,609.472,-0.885
1704.02,611.172,-0.91553
1705.38,612.872,-0.95094
1706.75,614.572,-0.99352
1708.11,616.272,-1.03434
1709.475,617.972,-1.07921
1710.84,619.672,-1.12724
1712.21,621.372,-1.18011
1713.58,623.072,-1.29132
1714.944,624.772,-1.45503
1716.312,626.472,-1.52468
1717.683,628.172,-1.59798
1719.05,629.872,-1.6711
1720.43,631.572,-1.75136
1721.8,633.272,-1.83145
1723.17,634.972,-1.91748
1724.55,636.672,-2.00444
1725.93,638.372,-2.09721
1727.31,640.072,-2.18159
1728.69,641.772,-2.27621
1730.07,643.472,-2.3747
1731.453,645.172,-2.47451
1732.83,646.872,-2.58409
1734.22,648.572,-2.68969
1735.61,650.272,-2.79519
1737,651.972,-2.90403
1738.392,653.672,-3.01389
1739.78,655.372,-3.12043
1741.18,657.072,-3.22904
1742.58,658.772,-3.33303
1743.98,660.472,-3.4457
1745.379,662.172,-3.55069
1746.783,663.872,-3.65932
1748.19,665.572,-3.77031
1749.6,667.272,-3.87602
1751.01,668.972,-3.9702
1752.43,670.672,-4.07203
1753.84,672.372,-4.17336
1755.26,674.072,-4.27045
1756.68,675.772,-4.363
1758.11,677.472,-4.45767
1759.54,679.172,-4.54477
1760.97,680.872,-4.62657
1762.401,682.572,-4.70761
1763.838,684.272,-4.77964
1765.278,685.972,-4.84692
1766.72,687.672,-4.90907
1768.16,689.372,-4.9637
1769.61,691.072,-5.01225
1771.05,692.772,-5.05384
1772.5,694.472,-5.09588
1773.95,696.172,-5.13028
1775.4,697.872,-5.15392
1776.85,699.572,-5.18318
1778.31,701.272,-5.20725
1779.77,702.972,-5.22721
1781.22,704.672,-5.24051
1782.687,706.372,-5.24785
1784.15,708.072,-5.25672
1785.62,709.772,-5.26522
1787.09,711.472,-5.27396
1788.57,713.172,-5.28428
1790.05,714.872,-5.29379
1791.53,716.572,-5.30414
1793.007,718.272,-5.31008
1794.5,719.972,-5.31599
1795.99,721.672,-5.31882
1797.48,723.372,-5.32298
1798.98,725.072,-5.32502
1800.48,726.772,-5.32704
1801.98,728.472,-5.32979
1803.49,730.172,-5.33191
1805,731.872,-5.33421
1806.52,733.572,-5.33508
1808.034,735.272,-5.3338
1809.56,736.972,-5.3351
1811.08,738.672,-5.336
1812.62,740.372,-5.336
1814.15,742.072,-5.33596
1815.69,743.772,-5.336
1817.24,745.472,-5.33501
1818.78,747.172,-5.33602
1820.33,748.872,-5.33688
1821.89,750.572,-5.33501
1823.445,752.272,-5.33585
1825.01,753.972,-5.33506
1826.58,755.672,-5.337
1828.15,757.372,-5.33505
1829.73,759.072,-5.33701
1831.32,760.772,-5.33703
1832.901,762.472,-5.337
1834.5,764.172,-5.33698
1836.09,765.872,-5.33597
1837.69,767.572,-5.33595
1839.29,769.272,-5.33703
1840.9,770.972,-5.337
1842.513,772.672,-5.337
1844.127,774.372,-5.33806
1845.75,776.072,-5.336
1847.373,777.772,-5.33584
1849,779.472,-5.33599
1850.64,781.172,-5.336
1852.27,782.872,-5.33581
1853.91,784.572,-5.33497
1855.56,786.272,-5.33606
1857.21,787.972,-5.33601
1858.86,789.672,-5.33605
1860.52,791.372,-5.33508
1862.18,793.072,-5.33441
1863.85,794.772,-5.33503
1865.52,796.472,-5.33399
1867.2,798.172,-5.335
1868.87,799.872,-5.33493
1870.55,801.572,-5.335
1872.24,803.272,-5.33481
1873.929,804.972,-5.335
1875.621,806.672,-5.33406
1877.32,808.372,-5.33509
1879.02,810.072,-5.33672
1880.73,811.772,-5.33596
1882.44,813.472,-5.33601
1883.93,814.872,-5.33601