File: Non-charring/PMMA/Sandia/Sandia_TGA_Ar_10K_1.csv
Time,Temperature,Mass
[s],[K],[mg]
1209.15,307.216,-4.00E-03
1386.97,309.116,1.19E-04
1429.46,311.016,9.93E-04
1459.95,312.916,4.00E-03
1484.83,314.816,2.88E-03
1506.56,316.716,4.31E-03
1526.13,318.616,6.85E-03
1544.11,320.516,9.43E-03
1560.96,322.416,1.16E-02
1576.92,324.316,1.10E-02
1592.14,326.216,9.14E-03
1606.731,328.116,9.46E-03
1620.86,330.016,8.87E-03
1634.54,331.916,8.98E-03
1647.76,333.816,8.01E-03
1660.695,335.716,7.59E-03
1673.331,337.616,7.88E-03
1685.7,339.516,6.03E-03
1697.89,341.416,3.84E-03
1709.88,343.316,1.80E-03
1721.67,345.216,3.02E-03
1733.31,347.116,4.09E-03
1744.83,349.016,2.17E-03
1756.22,350.916,1.96E-03
1767.44,352.816,2.96E-03
1778.54,354.716,9.91E-04
1789.54,356.616,-1.14E-03
1800.38,358.516,-8.58E-04
1811.1,360.416,-3.01E-03
1821.66,362.316,-4.00E-03
1832.196,364.216,-4.76E-03
1842.66,366.116,-5.17E-03
1852.95,368.016,-7.00E-03
1863.16,369.916,-8.99E-03
1873.32,371.816,-1.00E-02
1883.37,373.716,-1.17E-02
1893.39,375.616,-1.19E-02
1903.359,377.516,-1.20E-02
1913.28,379.416,-1.36E-02
1923.16,381.316,-1.50E-02
1933,383.216,-1.50E-02
1942.8,385.116,-1.91E-02
1952.56,387.016,-1.70E-02
1962.34,388.916,-1.89E-02
1972.05,390.816,-1.90E-02
1981.73,392.716,-1.99E-02
1991.36,394.616,-2.10E-02
2000.949,396.516,-2.30E-02
2010.534,398.416,-2.37E-02
2020.089,400.316,-2.46E-02
2029.59,402.216,-2.50E-02
2039.09,404.116,-2.70E-02
2048.57,406.016,-2.70E-02
2057.99,407.916,-2.90E-02
2067.39,409.816,-2.90E-02
2076.759,411.716,-3.20E-02
2086.12,413.616,-3.30E-02
2095.46,415.516,-3.60E-02
2104.76,417.416,-3.84E-02
2114.06,419.316,-4.10E-02
2123.36,421.216,-4.08E-02
2132.63,423.116,-4.41E-02
2141.901,425.016,-4.60E-02
2151.17,426.916,-4.90E-02
2160.45,428.816,-5.20E-02
2169.7,430.716,-5.40E-02
2178.96,432.616,-5.60E-02
2188.227,434.516,-5.90E-02
2197.51,436.416,-6.25E-02
2206.78,438.316,-6.77E-02
2216.06,440.216,-7.21E-02
2225.34,442.116,-7.71E-02
2234.6,444.016,-8.21E-02
2243.87,445.916,-8.84E-02
2253.144,447.816,-9.70E-02
2262.46,449.716,-0.10313
2271.78,451.616,-0.11198
2281.056,453.516,-0.12119
2290.34,455.416,-0.12799
2299.64,457.316,-0.1365
2308.94,459.216,-0.142
2318.24,461.116,-0.15207
2327.553,463.016,-0.159
2336.89,464.916,-0.16918
2346.24,466.816,-0.17521
2355.57,468.716,-0.1827
2364.91,470.616,-0.18898
2374.25,472.516,-0.19598
2383.63,474.416,-0.20199
2393,476.316,-0.20907
2402.39,478.216,-0.21612
2411.79,480.116,-0.221
2421.25,482.016,-0.22525
2430.68,483.916,-0.23192
2440.12,485.816,-0.236
2449.6,487.716,-0.23994
2459.09,489.616,-0.243
2468.577,491.516,-0.24503
2478.08,493.416,-0.24594
2487.62,495.316,-0.248
2497.15,497.216,-0.24903
2506.69,499.116,-0.25218
2516.274,501.016,-0.252
2525.85,502.916,-0.254
2535.43,504.816,-0.254
2545.06,506.716,-0.256
2554.668,508.616,-0.256
2564.29,510.516,-0.258
2573.907,512.416,-0.258
2583.564,514.316,-0.25999
2593.23,516.216,-0.26183
2602.93,518.116,-0.265
2612.63,520.016,-0.26698
2622.35,521.916,-0.26831
2632.08,523.816,-0.271
2641.85,525.716,-0.273
2651.66,527.616,-0.275
2661.444,529.516,-0.27701
2671.26,531.416,-0.27899
2681.067,533.316,-0.28116
2690.91,535.216,-0.28406
2700.76,537.116,-0.288
2710.65,539.016,-0.29249
2720.55,540.916,-0.296
2730.462,542.816,-0.301
2740.41,544.716,-0.30498
2750.36,546.616,-0.31097
2760.33,548.516,-0.31728
2770.33,550.416,-0.32498
2780.36,552.316,-0.33214
2790.39,554.216,-0.33835
2800.45,556.116,-0.34714
2810.52,558.016,-0.35597
2820.58,559.916,-0.36595
2830.66,561.816,-0.375
2840.763,563.716,-0.38657
2850.89,565.616,-0.39822
2861.019,567.516,-0.40903
2871.17,569.416,-0.42099
2881.314,571.316,-0.43395
2891.48,573.216,-0.44701
2901.654,575.116,-0.46078
2911.81,577.016,-0.47287
2921.97,578.916,-0.4886
2932.176,580.816,-0.50379
2942.37,582.716,-0.52287
2952.56,584.616,-0.54033
2962.74,586.516,-0.55922
2972.99,588.416,-0.5765
2983.27,590.316,-0.59485
2993.54,592.216,-0.61498
3003.79,594.116,-0.63906
3014.07,596.016,-0.66426
3024.36,597.916,-0.69114
3034.67,599.816,-0.71895
3044.99,601.716,-0.75075
3055.33,603.616,-0.78592
3065.69,605.516,-0.82136
3076.04,607.416,-0.86406
3086.39,609.316,-0.90732
3096.753,611.216,-0.96902
3107.151,613.116,-1.02051
3117.55,615.016,-1.08707
3127.95,616.916,-1.15403
3138.37,618.816,-1.22783
3148.83,620.716,-1.30989
3159.282,622.616,-1.3992
3169.737,624.516,-1.49588
3180.2,626.416,-1.59942
3190.7,628.316,-1.71114
3201.207,630.216,-1.82865
3211.707,632.116,-1.95179
3222.222,634.016,-2.08386
3232.75,635.916,-2.21898
3243.27,637.816,-2.35962
3253.82,639.716,-2.50412
3264.37,641.616,-2.65501
3274.92,643.516,-2.80549
3285.438,645.416,-2.9648
3295.97,647.316,-3.12034
3306.53,649.216,-3.27576
3317.1,651.116,-3.42721
3327.7,653.016,-3.57433
3338.298,654.916,-3.71612
3348.9,656.816,-3.84728
3359.472,658.716,-3.97409
3370.07,660.616,-4.09012
3380.66,662.516,-4.19619
3391.251,664.416,-4.29021
3401.83,666.316,-4.37238
3412.41,668.216,-4.4483
3422.97,670.116,-4.51485
3433.58,672.016,-4.57159
3444.16,673.916,-4.61406
3454.75,675.816,-4.65705
3465.354,677.716,-4.69686
3475.965,679.616,-4.73206
3486.57,681.516,-4.75621
3497.21,683.416,-4.77669
3507.86,685.316,-4.79602
3518.52,687.216,-4.81294
3529.215,689.116,-4.82787
3539.92,691.016,-4.83874
3550.67,692.916,-4.85053
3561.42,694.816,-4.86044
3572.23,696.716,-4.86891
3583.026,698.616,-4.87346
3593.86,700.516,-4.8782
3604.71,702.416,-4.88216
3615.59,704.316,-4.88606
3626.49,706.216,-4.89
3637.42,708.116,-4.892
3648.39,710.016,-4.894
3659.36,711.916,-4.89399
3670.35,713.816,-4.893
3681.38,715.716,-4.89208
3692.45,717.616,-4.89213
3703.55,719.516,-4.893
3714.68,721.416,-4.894
3725.85,723.316,-4.89497
3737.03,725.216,-4.89498
3748.26,727.116,-4.89513
3759.49,729.016,-4.895
3770.77,730.916,-4.897
3782.06,732.816,-4.897
3793.4,734.716,-4.899
3804.79,736.616,-4.899
3816.2,738.516,-4.89901
3827.61,740.416,-4.897
3839.04,742.316,-4.897
3850.51,744.216,-4.89697
3861.963,746.116,-4.89721
3873.44,748.016,-4.8949
3884.93,749.916,-4.896
3896.48,751.816,-4.898
3908.02,753.716,-4.899
3919.61,755.616,-4.89809
3931.22,757.516,-4.898
3942.86,759.416,-4.89801
3954.51,761.316,-4.89699
3966.21,763.216,-4.89599
3977.88,765.116,-4.89492
3989.57,767.016,-4.895
4001.25,768.916,-4.897
4012.94,770.816,-4.896
4024.647,772.716,-4.896
4036.34,774.616,-4.896
4048.07,776.516,-4.89398
4059.77,778.416,-4.896
4071.492,780.316,-4.894
4083.24,782.216,-4.894
4095.03,784.116,-4.894
4106.79,786.016,-4.894
4118.56,787.916,-4.89414
4130.35,789.816,-4.897
4142.14,791.716,-4.896
4153.97,793.616,-4.896
4165.77,795.516,-4.89598
4177.57,797.416,-4.895
4189.37,799.316,-4.895
4201.18,801.216,-4.895
4213.01,803.116,-4.89499
4224.84,805.016,-4.895
4236.67,806.916,-4.897
4248.46,808.816,-4.896
4260.249,810.716,-4.896
4272.06,812.616,-4.894
4283.868,814.516,-4.89622
4295.68,816.416,-4.894
4307.53,818.316,-4.896
4319.385,820.216,-4.89405
4331.24,822.116,-4.896
4343.08,824.016,-4.895
4354.959,825.916,-4.894
4366.83,827.816,-4.894
4378.67,829.716,-4.89464
4390.49,831.616,-4.895
4402.341,833.516,-4.895
4414.15,835.416,-4.898
4425.95,837.316,-4.89761
4437.74,839.216,-4.898
4449.5,841.116,-4.899
4461.3,843.016,-4.899
4473.12,844.916,-4.897
4484.91,846.816,-4.899
4496.75,848.716,-4.897
4508.63,850.616,-4.89695
4520.553,852.516,-4.897
4532.53,854.416,-4.898
4544.55,856.316,-4.89598
4556.54,858.216,-4.89595
4568.53,860.116,-4.896
4580.51,862.016,-4.89599
4592.49,863.916,-4.895
4604.43,865.816,-4.896
4616.36,867.716,-4.896
4628.439,869.616,-4.897