File: Non-charring/PMMA/Sandia/Sandia_TGA_Ar_10K_2.csv
Time,Temperature,Mass
[s],[K],[mg]
1200.35,308.35,9.00E-03
1384.52,310.25,7.09E-03
1428.59,312.15,5.55E-03
1460.457,314.05,6.78E-04
1486.79,315.95,-1.98E-04
1509.69,317.85,-3.97E-04
1530.42,319.75,-2.93E-03
1549.53,321.65,-1.98E-03
1567.449,323.55,-1.79E-03
1584.37,325.45,-2.02E-03
1600.49,327.35,-4.91E-03
1615.98,329.25,-3.89E-03
1630.95,331.15,-5.71E-03
1645.38,333.05,-4.47E-03
1659.42,334.95,-2.83E-03
1673.049,336.85,-4.71E-03
1686.34,338.75,-4.00E-03
1699.35,340.65,-9.23E-04
1712.08,342.55,-3.00E-03
1724.61,344.45,-6.03E-03
1736.91,346.35,-4.00E-03
1749.01,348.25,-2.38E-03
1760.96,350.15,-3.00E-03
1772.748,352.05,-4.00E-03
1784.34,353.95,-1.49E-07
1795.81,355.85,-2.01E-03
1807.14,357.75,-3.95E-03
1818.31,359.65,-1.01E-03
1829.38,361.55,-8.88E-04
1840.27,363.45,4.81E-04
1851.06,365.35,2.11E-03
1861.752,367.25,8.92E-04
1872.33,369.15,3.01E-03
1882.854,371.05,2.00E-03
1893.279,372.95,1.20E-04
1903.626,374.85,-1.06E-03
1913.92,376.75,1.01E-03
1924.14,378.65,-9.31E-04
1934.32,380.55,-9.97E-04
1944.45,382.45,-1.40E-04
1954.52,384.35,5.74E-05
1964.56,386.25,-4.10E-06
1974.56,388.15,-2.89E-05
1984.52,390.05,3.91E-06
1994.45,391.95,-2.00E-03
2004.31,393.85,-9.13E-05
2014.15,395.75,-1.02E-09
2023.93,397.65,-2.00E-03
2033.67,399.55,-3.02E-03
2043.38,401.45,-2.99E-03
2053.07,403.35,2.50E-06
2062.677,405.25,-3.02E-03
2072.25,407.15,-5.08E-03
2081.78,409.05,-5.99E-03
2091.31,410.95,-4.00E-03
2100.792,412.85,-5.00E-03
2110.251,414.75,-6.00E-03
2119.686,416.65,-9.09E-03
2129.09,418.55,-1.20E-02
2138.47,420.45,-1.20E-02
2147.841,422.35,-1.70E-02
2157.19,424.25,-1.70E-02
2166.549,426.15,-1.70E-02
2175.89,428.05,-1.90E-02
2185.2,429.95,-2.18E-02
2194.53,431.85,-2.60E-02
2203.851,433.75,-3.10E-02
2213.18,435.65,-3.20E-02
2222.52,437.55,-3.58E-02
2231.86,439.45,-4.00E-02
2241.19,441.35,-4.58E-02
2250.53,443.25,-5.20E-02
2259.86,445.15,-5.88E-02
2269.18,447.05,-6.40E-02
2278.51,448.95,-6.99E-02
2287.85,450.85,-8.05E-02
2297.17,452.75,-8.50E-02
2306.49,454.65,-9.09E-02
2315.817,456.55,-0.10217
2325.15,458.45,-0.11094
2334.46,460.35,-0.11894
2343.77,462.25,-0.12586
2353.08,464.15,-0.13317
2362.39,466.05,-0.14176
2371.71,467.95,-0.15013
2381.05,469.85,-0.15507
2390.373,471.75,-0.16114
2399.69,473.65,-0.16699
2409.06,475.55,-0.17252
2418.41,477.45,-0.17895
2427.79,479.35,-0.18376
2437.17,481.25,-0.18994
2446.55,483.15,-0.195
2455.94,485.05,-0.19878
2465.36,486.95,-0.203
2474.772,488.85,-0.205
2484.192,490.75,-0.205
2493.618,492.65,-0.20744
2503.041,494.55,-0.21107
2512.5,496.45,-0.214
2521.97,498.35,-0.215
2531.442,500.25,-0.217
2540.92,502.15,-0.219
2550.42,504.05,-0.221
2559.93,505.95,-0.221
2569.44,507.85,-0.221
2578.97,509.75,-0.221
2588.51,511.65,-0.22057
2598.06,513.55,-0.22499
2607.6,515.45,-0.22801
2617.18,517.35,-0.22589
2626.78,519.25,-0.226
2636.38,521.15,-0.2291
2645.97,523.05,-0.233
2655.58,524.95,-0.23399
2665.2,526.85,-0.236
2674.84,528.75,-0.238
2684.49,530.65,-0.23823
2694.16,532.55,-0.24289
2703.85,534.45,-0.24785
2713.55,536.35,-0.253
2723.27,538.25,-0.25299
2732.985,540.15,-0.258
2742.74,542.05,-0.25906
2752.51,543.95,-0.26396
2762.3,545.85,-0.268
2772.12,547.75,-0.26979
2781.98,549.65,-0.28203
2791.82,551.55,-0.28811
2801.7,553.45,-0.2959
2811.61,555.35,-0.30285
2821.55,557.25,-0.31
2831.51,559.15,-0.31693
2841.48,561.05,-0.32915
2851.46,562.95,-0.3389
2861.487,564.85,-0.34792
2871.513,566.75,-0.35951
2881.56,568.65,-0.37301
2891.631,570.55,-0.38673
2901.71,572.45,-0.3991
2911.788,574.35,-0.41253
2921.91,576.25,-0.42822
2932.017,578.15,-0.44118
2942.14,580.05,-0.45498
2952.28,581.95,-0.47185
2962.44,583.85,-0.48385
2972.6,585.75,-0.50551
2982.8,587.65,-0.52254
2992.99,589.55,-0.53918
3003.21,591.45,-0.5525
3013.46,593.35,-0.5767
3023.7,595.25,-0.60279
3033.978,597.15,-0.62605
3044.27,599.05,-0.65543
3054.56,600.95,-0.6836
3064.857,602.85,-0.7178
3075.177,604.75,-0.75453
3085.53,606.65,-0.78793
3095.88,608.55,-0.83574
3106.27,610.45,-0.88269
3116.68,612.35,-0.94249
3127.08,614.25,-0.99978
3137.48,616.15,-1.06669
3147.93,618.05,-1.13688
3158.4,619.95,-1.21967
3168.9,621.85,-1.30663
3179.44,623.75,-1.39825
3189.95,625.65,-1.49802
3200.499,627.55,-1.61047
3211.06,629.45,-1.72922
3221.62,631.35,-1.85208
3232.2,633.25,-1.98135
3242.79,635.15,-2.10749
3253.37,637.05,-2.24652
3263.95,638.95,-2.38764
3274.51,640.85,-2.52444
3285.04,642.75,-2.68734
3295.54,644.65,-2.83989
3306.09,646.55,-2.99257
3316.638,648.45,-3.15743
3327.2,650.35,-3.31291
3337.8,652.25,-3.45627
3348.39,654.15,-3.6025
3358.99,656.05,-3.74018
3369.618,657.95,-3.86213
3380.259,659.85,-3.97804
3390.89,661.75,-4.08064
3401.547,663.65,-4.17659
3412.218,665.55,-4.26071
3422.88,667.45,-4.32863
3433.55,669.35,-4.39303
3444.25,671.25,-4.44049
3454.96,673.15,-4.49609
3465.67,675.05,-4.53639
3476.4,676.95,-4.57669
3487.14,678.85,-4.61301
3497.895,680.75,-4.63549
3508.65,682.65,-4.65531
3519.42,684.55,-4.67525
3530.205,686.45,-4.69394
3541,688.35,-4.70597
3551.8,690.25,-4.71797
3562.6,692.15,-4.72615
3573.4,694.05,-4.73703
3584.21,695.95,-4.74408
3595.035,697.85,-4.75211
3605.86,699.75,-4.75899
3616.707,701.65,-4.76411
3627.54,703.55,-4.769
3638.391,705.45,-4.76997
3649.26,707.35,-4.774
3660.15,709.25,-4.772
3671.02,711.15,-4.77464
3681.89,713.05,-4.773
3692.775,714.95,-4.773
3703.67,716.85,-4.773
3714.58,718.75,-4.771
3725.5,720.65,-4.772
3736.43,722.55,-4.771
3747.35,724.45,-4.773
3758.325,726.35,-4.77099
3769.32,728.25,-4.77
3780.33,730.15,-4.77002
3791.337,732.05,-4.771
3802.365,733.95,-4.77298
3813.4,735.85,-4.772
3824.45,737.75,-4.77193
3835.51,739.65,-4.773
3846.58,741.55,-4.77337
3857.67,743.45,-4.77303
3868.776,745.35,-4.771
3879.85,747.25,-4.771
3890.92,749.15,-4.7742
3902.02,751.05,-4.772
3913.14,752.95,-4.77006
3924.26,754.85,-4.77111
3935.382,756.75,-4.773
3946.5,758.65,-4.77199
3957.61,760.55,-4.77003
3968.736,762.45,-4.772
3979.87,764.35,-4.774
3991.01,766.25,-4.771
4002.15,768.15,-4.7702
4013.31,770.05,-4.771
4024.47,771.95,-4.77
4035.68,773.85,-4.77002
4046.86,775.75,-4.769
4058.06,777.65,-4.77103
4069.28,779.55,-4.771
4080.513,781.45,-4.771
4091.74,783.35,-4.77099
4102.97,785.25,-4.773
4114.239,787.15,-4.77052
4125.51,789.05,-4.77101
4136.82,790.95,-4.769
4148.14,792.85,-4.767
4159.47,794.75,-4.767
4170.8,796.65,-4.7751
4182.12,798.55,-4.77526
4193.45,800.45,-4.773
4204.785,802.35,-4.772
4216.122,804.25,-4.773
4227.47,806.15,-4.77
4238.81,808.05,-4.76796
4250.15,809.95,-4.775
4261.49,811.85,-4.775
4272.82,813.75,-4.77108
4284.17,815.65,-4.77707
4295.523,817.55,-4.775
4306.845,819.45,-4.76997
4318.191,821.35,-4.774
4329.558,823.25,-4.76993
4340.91,825.15,-4.7668
4352.283,827.05,-4.77
4363.665,828.95,-4.77198
4375.03,830.85,-4.772
4386.38,832.75,-4.77299
4397.77,834.65,-4.772
4409.13,836.55,-4.77
4420.509,838.45,-4.77
4431.89,840.35,-4.768
4443.27,842.25,-4.768
4454.65,844.15,-4.77407
4466.05,846.05,-4.77396
4477.488,847.95,-4.772
4488.91,849.85,-4.774
4500.35,851.75,-4.775
4511.8,853.65,-4.77302
4523.268,855.55,-4.77517
4534.74,857.45,-4.774
4546.22,859.35,-4.773
4557.72,861.25,-4.77197
4569.23,863.15,-4.77182
4580.75,865.05,-4.776
4592.27,866.95,-4.773
4603.78,868.85,-4.77417
4615.296,870.75,-4.77062
4619.6,871.45,-4.7741