File: PMMA/Validation_Results/NIST-FSRI/NIST-FSRI_Gasification_q25_Temp_T2.csv
Time,T_back
[s],[K]
0,294.5
2,294.5
4,294.5
6,294.5
8,294.5
10,294.5
12,294.5
14,294.5
16,294.6
18,294.6
20,294.7
22,294.9
24,295.1
26,295.4
28,295.8
30,296.3
32,296.9
34,297.5
36,298.3
38,299.2
40,300.1
42,301.1
44,302.2
46,303.4
48,304.7
50,306.0
52,307.4
54,308.9
56,310.4
58,312.0
60,313.7
62,315.4
64,317.1
66,318.9
68,320.7
70,322.6
72,324.4
74,326.4
76,328.3
78,330.3
80,332.3
82,334.3
84,336.3
86,338.4
88,340.4
90,342.5
92,344.6
94,346.7
96,348.8
98,350.9
100,353.0
102,355.2
104,357.3
106,359.4
108,361.5
110,363.7
112,365.8
114,367.9
116,370.1
118,372.2
120,374.3
122,376.4
124,378.5
126,380.6
128,382.7
130,384.8
132,386.9
134,389.0
136,391.0
138,393.1
140,395.1
142,397.2
144,399.2
146,401.2
148,403.2
150,405.2
152,407.2
154,409.2
156,411.2
158,413.1
160,415.1
162,417.0
164,418.9
166,420.8
168,422.7
170,424.6
172,426.5
174,428.3
176,430.2
178,432.0
180,433.8
182,435.7
184,437.5
186,439.2
188,441.0
190,442.8
192,444.5
194,446.2
196,447.9
198,449.6
200,451.3
202,453.0
204,454.7
206,456.3
208,457.9
210,459.6
212,461.2
214,462.8
216,464.3
218,465.9
220,467.5
222,469.0
224,470.5
226,472.0
228,473.5
230,475.0
232,476.5
234,478.0
236,479.4
238,480.8
240,482.3
242,483.7
244,485.1
246,486.5
248,487.8
250,489.2
252,490.5
254,491.9
256,493.2
258,494.5
260,495.8
262,497.1
264,498.4
266,499.6
268,500.9
270,502.1
272,503.3
274,504.5
276,505.7
278,506.9
280,508.1
282,509.3
284,510.4
286,511.6
288,512.7
290,513.8
292,514.9
294,516.0
296,517.1
298,518.2
300,519.3
302,520.3
304,521.4
306,522.4
308,523.4
310,524.5
312,525.5
314,526.5
316,527.4
318,528.4
320,529.4
322,530.3
324,531.3
326,532.2
328,533.1
330,534.0
332,534.9
334,535.8
336,536.7
338,537.6
340,538.4
342,539.3
344,540.1
346,541.0
348,541.8
350,542.6
352,543.4
354,544.2
356,545.0
358,545.8
360,546.5
362,547.3
364,548.0
366,548.8
368,549.5
370,550.2
372,550.9
374,551.6
376,552.3
378,553.0
380,553.7
382,554.3
384,555.0
386,555.7
388,556.3
390,556.9
392,557.5
394,558.2
396,558.8
398,559.4
400,560.0
402,560.5
404,561.1
406,561.7
408,562.2
410,562.8
412,563.3
414,563.9
416,564.4
418,564.9
420,565.4
422,565.9
424,566.4
426,566.9
428,567.4
430,567.9
432,568.4
434,568.8
436,569.3
438,569.7
440,570.2
442,570.6
444,571.1
446,571.5
448,571.9
450,572.4
452,572.8
454,573.2
456,573.6
458,574.0
460,574.4
462,574.8
464,575.2
466,575.5
468,575.9
470,576.3
472,576.7
474,577.0
476,577.4
478,577.7
480,578.1
482,578.4
484,578.8
486,579.1
488,579.5
490,579.8
492,580.2
494,580.5
496,580.8
498,581.1
500,581.5