File: PMMA/Validation_Results/NIST-FSRI/NIST-FSRI_Gasification_q25_Temp_T3.csv
Time,T_back
[s],[K]
0,294.7
2,294.7
4,294.7
6,294.7
8,294.7
10,294.7
12,294.7
14,294.7
16,294.8
18,294.9
20,295.1
22,295.4
24,295.8
26,296.3
28,296.9
30,297.7
32,298.5
34,299.5
36,300.6
38,301.8
40,303.1
42,304.4
44,305.9
46,307.5
48,309.1
50,310.8
52,312.6
54,314.5
56,316.4
58,318.3
60,320.3
62,322.4
64,324.5
66,326.6
68,328.8
70,331.0
72,333.2
74,335.4
76,337.7
78,340.0
80,342.3
82,344.6
84,346.9
86,349.3
88,351.6
90,353.9
92,356.3
94,358.7
96,361.0
98,363.4
100,365.7
102,368.1
104,370.5
106,372.8
108,375.1
110,377.5
112,379.8
114,382.1
116,384.5
118,386.8
120,389.1
122,391.4
124,393.6
126,395.9
128,398.2
130,400.4
132,402.6
134,404.9
136,407.1
138,409.3
140,411.5
142,413.6
144,415.8
146,417.9
148,420.1
150,422.2
152,424.3
154,426.4
156,428.4
158,430.5
160,432.5
162,434.6
164,436.6
166,438.6
168,440.6
170,442.5
172,444.5
174,446.4
176,448.3
178,450.2
180,452.1
182,454.0
184,455.8
186,457.6
188,459.5
190,461.3
192,463.0
194,464.8
196,466.6
198,468.3
200,470.0
202,471.7
204,473.4
206,475.1
208,476.7
210,478.4
212,480.0
214,481.6
216,483.2
218,484.8
220,486.3
222,487.9
224,489.4
226,490.9
228,492.4
230,493.9
232,495.3
234,496.8
236,498.2
238,499.6
240,501.0
242,502.4
244,503.8
246,505.1
248,506.5
250,507.8
252,509.1
254,510.4
256,511.7
258,513.0
260,514.2
262,515.5
264,516.7
266,517.9
268,519.1
270,520.3
272,521.5
274,522.6
276,523.8
278,524.9
280,526.0
282,527.2
284,528.2
286,529.3
288,530.4
290,531.5
292,532.5
294,533.5
296,534.5
298,535.5
300,536.5
302,537.5
304,538.5
306,539.4
308,540.4
310,541.3
312,542.2
314,543.1
316,544.0
318,544.9
320,545.8
322,546.6
324,547.5
326,548.3
328,549.1
330,549.9
332,550.7
334,551.5
336,552.3
338,553.0
340,553.8
342,554.5
344,555.3
346,556.0
348,556.7
350,557.4
352,558.1
354,558.8
356,559.4
358,560.1
360,560.7
362,561.4
364,562.0
366,562.6
368,563.2
370,563.8
372,564.4
374,565.0
376,565.6
378,566.1
380,566.7
382,567.2
384,567.8
386,568.3
388,568.8
390,569.3
392,569.8
394,570.3
396,570.8
398,571.3
400,571.8
402,572.2
404,572.7
406,573.1
408,573.6
410,574.0
412,574.5
414,574.9
416,575.3
418,575.7
420,576.2
422,576.6
424,577.0
426,577.4
428,577.8
430,578.1
432,578.5
434,578.9
436,579.3
438,579.6
440,580.0
442,580.4
444,580.7
446,581.1
448,581.4
450,581.8
452,582.1
454,582.5
456,582.8
458,583.1
460,583.5
462,583.8
464,584.1
466,584.5
468,584.8
470,585.1
472,585.4
474,585.7
476,586.1
478,586.4
480,586.7
482,587.0
484,587.3
486,587.6
488,587.9
490,588.2
492,588.5
494,588.8
496,589.1
498,589.4
500,589.8