File: PMMA/Validation_Results/Aalto-II-PMMA-Gasification/Aalto-II_PMMA_Gasification_q50_Mass.csv
Time,Mass
s,g
0,27.01
2,27.01
4,27.01
6.1,27.01
8.1,27.01
10.1,27.00
12.1,27.00
14.1,26.99
16.1,26.98
18.1,26.97
20,26.96
22,26.95
24,26.93
26,26.92
28,26.90
30,26.88
32,26.85
34,26.81
36,26.77
38,26.72
40,26.67
42,26.61
44,26.55
46,26.48
48,26.41
50,26.34
52,26.26
54,26.17
56,26.09
58,26.00
60,25.91
62,25.81
64,25.71
66,25.62
68,25.52
70,25.41
72,25.31
74,25.20
76.1,25.09
78.1,24.98
80.1,24.87
82.1,24.76
84.1,24.65
86.1,24.53
88.1,24.42
90.1,24.30
92.1,24.19
94.1,24.07
96.1,23.95
98.1,23.83
100.1,23.71
102.1,23.58
104.1,23.46
106.1,23.34
108.1,23.21
110.1,23.08
112.1,22.96
114.1,22.83
116.1,22.70
118.1,22.57
120.1,22.44
122.1,22.31
124.1,22.18
126.1,22.04
128.1,21.91
130.1,21.77
132.1,21.64
134.1,21.50
136.1,21.37
138.1,21.23
140.1,21.09
142.1,20.95
144.1,20.81
146.1,20.67
148.1,20.53
150.1,20.38
152.1,20.24
154.1,20.10
156.1,19.95
158.1,19.81
160.1,19.66
162.1,19.51
164.1,19.36
166.1,19.22
168.1,19.07
170.1,18.92
172.1,18.76
174.1,18.61
176.1,18.46
178.1,18.31
180.1,18.15
182.1,18.00
184.1,17.84
186.1,17.68
188.1,17.53
190.1,17.37
192.1,17.21
194.1,17.05
196.1,16.89
198.1,16.73
200.1,16.57
202.1,16.41
204.1,16.24
206.1,16.08
208.1,15.92
210.1,15.75
212.1,15.59
214.1,15.42
216.1,15.26
218.1,15.09
220.1,14.92
222.1,14.76
224.1,14.59
226.1,14.42
228.1,14.25
230.1,14.08
232.1,13.91
234.1,13.74
236.1,13.57
238.1,13.40
240.1,13.22
242.1,13.05
244.1,12.87
246.1,12.70
248.1,12.52
250.1,12.35
252.1,12.17
254.1,11.99
256.1,11.81
258.1,11.62
260.1,11.44
262.1,11.26
264.1,11.07
266.1,10.88
268.1,10.70
270.1,10.51
272.1,10.31
274.1,10.12
276.1,9.93
278.1,9.73
280.1,9.53
282.1,9.34
284.1,9.14
286.1,8.93
288.1,8.73
290.1,8.53
292.1,8.32
294.1,8.11
296.1,7.90
298.1,7.69
300.1,7.48
302,7.27
304,7.06
306,6.85
308,6.63
310,6.41
312,6.19
314,5.97
316,5.74
318,5.52
320,5.29
322,5.07
324,4.84
326,4.61
328,4.38
330,4.14
332,3.91
334,3.67
336,3.44
338,3.20
340,2.96
342,2.72
344,2.48
346,2.23
348,1.99
350,1.74
352,1.50
354,1.25
356,1.00
358,0.76
360,0.52
362,0.31
364,0.21
366,0.20
368,0.20
370,0.20
372,0.20
374,0.20
376,0.20
378,0.20
380,0.20
382,0.20
384,0.20
386,0.19
388,0.19
390,0.19
392,0.19
394,0.19
396,0.19
398,0.19
400,0.19
402,0.19
404,0.19
406,0.19
408,0.18
410,0.18
412,0.18
414,0.18
416,0.18
418,0.18
420,0.18
422,0.18
424,0.18
426,0.18
428,0.18
430,0.18
432,0.17
434,0.17
436,0.17
438,0.17
440,0.17
442,0.17
444,0.17
446,0.17
448,0.17
450,0.17
452,0.17
454,0.17
456,0.16
458,0.16
460,0.16
462,0.16
464,0.16
466,0.16
468,0.16
470,0.16
472,0.16
474,0.16
476,0.16
478,0.16
480,0.16
482,0.15
484,0.15
486,0.15
488,0.15
490,0.15
492,0.15
494,0.15
496,0.15
498,0.15
500,0.15
,
,
,
,
,
,
,
,
,
,
,
,
,
,
,
,
,
,
,
,
,
,
,
,
,
,
,
,
,
,
,
,
,
,
,
,
,
,
,
,
,
,
,
,
,
,
,
,
,
,
,
,
,
,
,
,
,
,
,
,
,
,
,
,
,
,
,
,
,
,
,
,
,
,
,
,
,
,
,
,
,
,
,
,
,
,
,
,
,
,
,
,
,
,
,
,
,
,
,
,