File: PMMA/Validation_Results/Aalto-II-PMMA-Gasification/Aalto_II_PMMA_Gasification_q25_Mass.csv
Time,Mass
s,g
0,27.01
5.1,27.01
10.1,27.01
15.1,27.01
20,27.01
25,27
30,27
35,26.99
40,26.99
45,26.98
50,26.96
55,26.95
60,26.94
65,26.92
70,26.91
75,26.9
80.1,26.88
85.1,26.87
90.1,26.85
95.1,26.84
100.1,26.82
105.1,26.81
110.1,26.79
115.1,26.77
120.1,26.75
125.1,26.73
130.1,26.71
135.1,26.69
140.1,26.66
145.1,26.63
150.1,26.6
155.1,26.57
160.1,26.54
165.1,26.5
170.1,26.46
175.1,26.41
180.1,26.37
185.1,26.32
190.1,26.27
195.1,26.22
200.1,26.16
205.1,26.1
210.1,26.04
215.1,25.97
220.1,25.91
225.1,25.84
230.1,25.76
235.1,25.69
240.1,25.61
245.1,25.53
250.1,25.45
255.1,25.37
260.1,25.28
265.1,25.19
270.1,25.1
275.1,25.01
280.1,24.91
285.1,24.82
290.1,24.72
295.1,24.62
300.1,24.52
305,24.42
310,24.32
315,24.21
320,24.11
325,24
330,23.9
335,23.79
340,23.68
345,23.57
350,23.46
355,23.35
360,23.23
365,23.12
370,23
375,22.89
380,22.77
385,22.65
390,22.53
395,22.41
400,22.29
405,22.17
410,22.04
415,21.92
420,21.79
425,21.66
430,21.53
435,21.4
440,21.27
445,21.13
450,21
455,20.86
460,20.72
465,20.58
470,20.44
475,20.3
480,20.16
485,20.01
490,19.87
495,19.72
500,19.57
505,19.42
510,19.27
515,19.12
520,18.97
525,18.81
530,18.66
535,18.5
540,18.34
545,18.19
550,18.03
555,17.87
560,17.71
565,17.55
570,17.38
575,17.22
580,17.06
585,16.89
590,16.73
595,16.56
600,16.39
605,16.22
610,16.06
615,15.89
620,15.72
625,15.55
630,15.37
635,15.2
640,15.03
645,14.86
650,14.68
655,14.51
660,14.34
665,14.16
670,13.98
675,13.81
680,13.63
685,13.46
690,13.28
695,13.1
700,12.92
705,12.74
710,12.56
715,12.39
720,12.21
725,12.03
730,11.85
735,11.66
740,11.48
745,11.3
750,11.12
755,10.94
760,10.76
765,10.57
770,10.39
775,10.21
780,10.02
785,9.84
790,9.66
795,9.47
800,9.29
805,9.1
810,8.92
815,8.73
820,8.54
825,8.36
830,8.17
835,7.99
840,7.8
845,7.61
850,7.43
855,7.24
860,7.05
865,6.86
870,6.67
875,6.49
880,6.3
885,6.11
890,5.92
895,5.73
900,5.54
905,5.35
910,5.16
915,4.97
920,4.78
925,4.59
930,4.4
935,4.22
940,4.03
945,3.84
950,3.65
955,3.46
960,3.27
965,3.08
970,2.89
975,2.71
980,2.52
985,2.33
990,2.15
995,1.96
1000,1.78
1005,1.6
1010,1.42
1015,1.25
1020,1.07
1025,0.91
1030,0.74
1035,0.59
1040,0.44
1045,0.31
1050,0.19
1055,0.11
1060,0.08
1065,0.07
1070,0.07
1075,0.07
1080,0.07
1085,0.07
1090,0.07
1095,0.07
1100,0.06
1105,0.06
1110,0.06
1115,0.06
1120,0.06
1125,0.06
1130,0.06
1135,0.06
1140,0.06
1145,0.06
1150,0.06
1155,0.06
1160,0.06
1165,0.06
1170,0.06
1175,0.06
1180,0.05
1185,0.05
1190,0.05
1195,0.05
1200,0.05