File: PMMA/Validation_Results/NIST-StMU -FSRI/NIST-StMU-FSRI_Gassification_q50_Temp_R1.csv
Time,T_back
[s],[K]
0.0,292.1
2.0,292.1
4.0,292.1
6.0,292.1
8.0,292.1
10.0,292.1
12.0,292.1
14.0,292.1
16.0,292.2
18.0,292.3
20.0,292.5
22.0,292.7
24.0,293.1
26.0,293.6
28.0,294.2
30.0,294.9
32.0,295.8
34.0,296.8
36.0,298.0
38.0,299.4
40.0,300.8
42.0,302.4
44.0,304.2
46.0,306.1
48.0,308.1
50.0,310.2
52.0,312.5
54.0,314.8
56.0,317.3
58.0,319.8
60.0,322.5
62.0,325.2
64.0,328.0
66.0,330.8
68.0,333.8
70.0,336.8
72.0,339.8
74.0,342.9
76.0,346.0
78.0,349.2
80.0,352.3
82.0,355.6
84.0,358.8
86.0,362.0
88.0,365.3
90.0,368.6
92.0,371.9
94.0,375.1
96.0,378.4
98.0,381.7
100.0,385.0
102.0,388.2
104.0,391.5
106.0,394.7
108.0,398.0
110.0,401.2
112.0,404.4
114.0,407.5
116.0,410.7
118.0,413.8
120.0,416.9
122.0,420.0
124.0,423.1
126.0,426.1
128.0,429.1
130.0,432.1
132.0,435.1
134.0,438.0
136.0,440.9
138.0,443.8
140.0,446.6
142.0,449.4
144.0,452.2
146.0,455.0
148.0,457.7
150.0,460.4
152.0,463.1
154.0,465.7
156.0,468.4
158.0,471.0
160.0,473.5
162.0,476.1
164.0,478.6
166.0,481.1
168.0,483.6
170.0,486.1
172.0,488.6
174.0,491.0
176.0,493.5
178.0,495.9
180.0,498.4
182.0,500.9
184.0,503.3
186.0,505.8
188.0,508.3
190.0,510.7
192.0,513.3
194.0,515.8
196.0,518.3
198.0,520.9
200.0,523.5
202.0,526.1
204.0,528.8
206.0,531.4
208.0,534.1
210.0,536.8
212.0,539.6
214.0,542.3
216.0,545.1
218.0,547.8
220.0,550.6
222.0,553.3
224.0,556.0
226.0,558.7
228.0,561.4
230.0,564.0
232.0,566.6
234.0,569.2
236.0,571.7
238.0,574.1
240.0,576.5
242.0,578.8
244.0,581.1
246.0,583.3
248.0,585.5
250.0,587.5
252.0,589.6
254.0,591.6
256.0,593.5
258.0,595.4
260.0,597.2
262.0,599.0
264.0,600.8
266.0,602.5
268.0,604.2
270.0,605.8
272.0,607.5
274.0,609.1
276.0,610.7
278.0,612.3
280.0,613.9
282.0,615.5
284.0,617.2
286.0,618.8
288.0,620.4
290.0,622.1
292.0,623.7
294.0,625.4
296.0,627.1
298.0,628.9
300.0,630.7
302.0,632.5
304.0,634.4
306.0,636.4
308.0,638.4
310.0,640.4
312.0,642.5
314.0,644.7
316.0,647.0
318.0,649.4
320.0,651.8
322.0,654.4
324.0,657.1
326.0,660.0
328.0,663.0
330.0,666.2
332.0,669.6
334.0,673.1
336.0,676.8
338.0,680.7
340.0,684.6
342.0,688.7
344.0,693.0
346.0,697.5
348.0,702.8
350.0,708.5
352.0,716.3
354.0,726.0
356.0,743.7
358.0,780.4
360.0,822.3
362.0,839.4
364.0,848.6
366.0,854.6
368.0,859.0
370.0,862.4
372.0,865.1
374.0,867.4
376.0,869.3
378.0,871.0
380.0,872.5
382.0,873.9
384.0,875.1
386.0,876.2
388.0,877.1
390.0,878.1
392.0,878.9
394.0,879.7
396.0,880.4
398.0,881.1
400.0,881.7
402.0,882.3
404.0,882.9
406.0,883.5
408.0,884.0
410.0,884.5
412.0,884.9
414.0,885.4
416.0,885.8
418.0,886.2
420.0,886.6
422.0,887.0
424.0,887.3
426.0,887.7
428.0,888.0
430.0,888.3
432.0,888.6
434.0,888.9
436.0,889.2
438.0,889.5
440.0,889.8
442.0,890.0
444.0,890.3
446.0,890.5
448.0,890.8
450.0,891.0
452.0,891.2
454.0,891.5
456.0,891.7
458.0,891.9
460.0,892.1
462.0,892.3
464.0,892.5
466.0,892.7
468.0,892.9
470.0,893.1
472.0,893.2
474.0,893.4
476.0,893.6
478.0,893.8
480.0,893.9
482.0,894.1
484.0,894.2
486.0,894.4
488.0,894.5
490.0,894.7
492.0,894.8
494.0,895.0
496.0,895.1
498.0,895.2
500.0,895.4