File: PMMA/Validation_Results/NIST-StMU -FSRI/NIST-StMU-FSRI_Gassification_q50_Mass_R3.csv
Time,Mass
[s],[g]
0.0,26.7
2.0,26.7
4.0,26.7
6.0,26.7
8.0,26.7
10.0,26.7
12.0,26.7
14.0,26.7
16.0,26.7
18.0,26.7
20.0,26.7
22.0,26.7
24.0,26.7
26.0,26.6
28.0,26.6
30.0,26.6
32.0,26.6
34.0,26.6
36.0,26.6
38.0,26.5
40.0,26.5
42.0,26.5
44.0,26.5
46.0,26.5
48.0,26.4
50.0,26.4
52.0,26.4
54.0,26.3
56.0,26.3
58.0,26.2
60.0,26.2
62.0,26.1
64.0,26.0
66.0,26.0
68.0,25.9
70.0,25.8
72.0,25.8
74.0,25.7
76.0,25.6
78.0,25.5
80.0,25.4
82.0,25.3
84.0,25.3
86.0,25.2
88.0,25.1
90.0,25.0
92.0,24.9
94.0,24.8
96.0,24.7
98.0,24.6
100.0,24.5
102.0,24.4
104.0,24.2
106.0,24.1
108.0,24.0
110.0,23.9
112.0,23.8
114.0,23.7
116.0,23.6
118.0,23.5
120.0,23.3
122.0,23.2
124.0,23.1
126.0,23.0
128.0,22.8
130.0,22.7
132.0,22.6
134.0,22.5
136.0,22.3
138.0,22.2
140.0,22.1
142.0,21.9
144.0,21.8
146.0,21.7
148.0,21.5
150.0,21.4
152.0,21.3
154.0,21.1
156.0,21.0
158.0,20.8
160.0,20.7
162.0,20.6
164.0,20.4
166.0,20.3
168.0,20.1
170.0,20.0
172.0,19.8
174.0,19.7
176.0,19.5
178.0,19.4
180.0,19.2
182.0,19.1
184.0,18.9
186.0,18.8
188.0,18.6
190.0,18.4
192.0,18.3
194.0,18.1
196.0,18.0
198.0,17.8
200.0,17.6
202.0,17.5
204.0,17.3
206.0,17.1
208.0,17.0
210.0,16.8
212.0,16.6
214.0,16.5
216.0,16.3
218.0,16.1
220.0,15.9
222.0,15.8
224.0,15.6
226.0,15.4
228.0,15.3
230.0,15.1
232.0,14.9
234.0,14.7
236.0,14.5
238.0,14.4
240.0,14.2
242.0,14.0
244.0,13.8
246.0,13.6
248.0,13.4
250.0,13.2
252.0,13.1
254.0,12.9
256.0,12.7
258.0,12.5
260.0,12.3
262.0,12.1
264.0,11.9
266.0,11.7
268.0,11.5
270.0,11.3
272.0,11.1
274.0,10.8
276.0,10.6
278.0,10.4
280.0,10.2
282.0,10.0
284.0,9.8
286.0,9.5
288.0,9.3
290.0,9.1
292.0,8.9
294.0,8.7
296.0,8.4
298.0,8.2
300.0,8.0
302.0,7.7
304.0,7.5
306.0,7.3
308.0,7.0
310.0,6.8
312.0,6.6
314.0,6.3
316.0,6.1
318.0,5.9
320.0,5.6
322.0,5.4
324.0,5.2
326.0,4.9
328.0,4.7
330.0,4.5
332.0,4.2
334.0,4.0
336.0,3.7
338.0,3.5
340.0,3.2
342.0,3.0
344.0,2.8
346.0,2.5
348.0,2.3
350.0,2.0
352.0,1.8
354.0,1.6
356.0,1.3
358.0,1.1
360.0,0.8
362.0,0.6
364.0,0.4
366.0,0.1
368.0,-0.1
370.0,-0.3
372.0,-0.5
374.0,-0.7
376.0,-0.9
378.0,-1.1
380.0,-1.2
382.0,-1.3
384.0,-1.3
386.0,-1.3
388.0,-1.3
390.0,-1.3
392.0,-1.3
394.0,-1.3
396.0,-1.3
398.0,-1.3
400.0,-1.3
402.0,-1.3
404.0,-1.3
406.0,-1.3
408.0,-1.3
410.0,-1.3
412.0,-1.3
414.0,-1.3
416.0,-1.3
418.0,-1.3
420.0,-1.3
422.0,-1.3
424.0,-1.3
426.0,-1.3
428.0,-1.3
430.0,-1.3
432.0,-1.3
434.0,-1.3
436.0,-1.3
438.0,-1.3
440.0,-1.3
442.0,-1.3
444.0,-1.3
446.0,-1.3
448.0,-1.3
450.0,-1.3
452.0,-1.3
454.0,-1.3
456.0,-1.3
458.0,-1.3
460.0,-1.3
462.0,-1.3
464.0,-1.3
466.0,-1.3
468.0,-1.3
470.0,-1.3
472.0,-1.3
474.0,-1.3
476.0,-1.3
478.0,-1.3
480.0,-1.3
482.0,-1.3
484.0,-1.3
486.0,-1.3
488.0,-1.3
490.0,-1.3
492.0,-1.3
494.0,-1.3
496.0,-1.3
498.0,-1.3
500.0,-1.3