File: PMMA/Validation_Results/NIST-StMU -FSRI/NIST-StMU-FSRI_Gassification_q25_Temp_R3.csv
Time,T_back
[s],[K]
0.0,294.7
3.2,294.6
6.4,294.7
9.6,294.7
12.8,294.7
16.0,294.7
19.2,294.7
22.4,294.8
25.6,295.0
28.8,295.3
32.0,295.7
35.2,296.3
38.4,297.0
41.6,297.8
44.8,298.9
48.0,300.0
51.2,301.3
54.4,302.8
57.6,304.4
60.8,306.1
64.0,308.0
67.2,309.9
70.4,311.9
73.6,314.1
76.8,316.3
80.0,318.6
83.2,321.0
86.4,323.4
89.6,325.9
92.8,328.4
96.0,331.0
99.2,333.6
102.4,336.3
105.6,338.9
108.8,341.6
112.0,344.3
115.2,347.1
118.4,349.8
121.6,352.6
124.8,355.3
128.0,358.1
131.2,360.8
134.4,363.6
137.6,366.3
140.8,369.1
144.0,371.8
147.2,374.6
150.4,377.3
153.6,380.0
156.8,382.7
160.0,385.4
163.2,388.1
166.4,390.8
169.6,393.4
172.8,396.1
176.0,398.7
179.2,401.3
182.4,403.9
185.6,406.4
188.8,408.9
192.0,411.4
195.2,413.9
198.4,416.4
201.6,418.8
204.8,421.2
208.0,423.6
211.2,426.0
214.4,428.3
217.6,430.6
220.8,432.8
224.0,435.1
227.2,437.3
230.4,439.4
233.6,441.6
236.8,443.7
240.0,445.8
243.2,447.8
246.4,449.9
249.6,451.9
252.8,453.8
256.0,455.8
259.2,457.7
262.4,459.6
265.6,461.4
268.8,463.3
272.0,465.1
275.2,466.9
278.4,468.6
281.6,470.4
284.8,472.1
288.0,473.8
291.2,475.5
294.4,477.2
297.6,478.9
300.8,480.6
304.0,482.2
307.2,483.9
310.4,485.5
313.6,487.2
316.8,488.8
320.0,490.4
323.2,492.0
326.4,493.7
329.6,495.3
332.8,496.9
336.0,498.5
339.2,500.2
342.4,501.8
345.6,503.4
348.8,505.1
352.0,506.7
355.2,508.3
358.4,509.9
361.6,511.6
364.8,513.2
368.0,514.8
371.2,516.5
374.4,518.1
377.6,519.7
380.8,521.3
384.0,522.9
387.2,524.4
390.4,526.0
393.6,527.5
396.8,529.1
400.0,530.6
403.2,532.1
406.4,533.5
409.6,535.0
412.8,536.4
416.0,537.8
419.2,539.1
422.4,540.5
425.6,541.8
428.8,543.1
432.0,544.3
435.2,545.5
438.4,546.7
441.6,547.9
444.8,549.0
448.0,550.2
451.2,551.3
454.4,552.3
457.6,553.4
460.8,554.4
464.0,555.4
467.2,556.3
470.4,557.3
473.6,558.2
476.8,559.1
480.0,560.0
483.2,560.8
486.4,561.7
489.6,562.5
492.8,563.3
496.0,564.0
499.2,564.8
502.4,565.5
505.6,566.3
508.8,567.0
512.0,567.7
515.2,568.3
518.4,569.0
521.6,569.6
524.8,570.3
528.0,570.9
531.2,571.5
534.4,572.1
537.6,572.6
540.8,573.2
544.0,573.7
547.2,574.3
550.4,574.8
553.6,575.3
556.8,575.8
560.0,576.3
563.2,576.8
566.4,577.3
569.6,577.8
572.8,578.3
576.0,578.7
579.2,579.2
582.4,579.6
585.6,580.1
588.8,580.5
592.0,580.9
595.2,581.4
598.4,581.8
601.6,582.2
604.8,582.6
608.0,583.0
611.2,583.4
614.4,583.8
617.6,584.2
620.8,584.6
624.0,585.0
627.2,585.4
630.4,585.8
633.6,586.2
636.8,586.5
640.0,586.9
643.2,587.3
646.4,587.7
649.6,588.1
652.8,588.4
656.0,588.8
659.2,589.2
662.4,589.6
665.6,589.9
668.8,590.3
672.0,590.7
675.2,591.0
678.4,591.4
681.6,591.8
684.8,592.1
688.0,592.5
691.2,592.9
694.4,593.3
697.6,593.6
700.8,594.0
704.0,594.4
707.2,594.8
710.4,595.1
713.6,595.5
716.8,595.9
720.0,596.3
723.2,596.6
726.4,597.0
729.6,597.4
732.8,597.8
736.0,598.2
739.2,598.6
742.4,598.9
745.6,599.3
748.8,599.7
752.0,600.1
755.2,600.5
758.4,600.9
761.6,601.3
764.8,601.7
768.0,602.1
771.2,602.5
774.4,602.9
777.6,603.3
780.8,603.8
784.0,604.2
787.2,604.6
790.4,605.0
793.6,605.4
796.8,605.9
800.0,606.3