File: PMMA/Validation_Results/NIST-StMU -FSRI/NIST-StMU-FSRI_Gassification_q25_Temp_R1.csv
Time,T_back
[s],[K]
0.0,294.5
3.2,294.5
6.4,294.5
9.6,294.5
12.8,294.5
16.0,294.5
19.2,294.5
22.4,294.6
25.6,294.7
28.8,294.9
32.0,295.1
35.2,295.5
38.4,296.0
41.6,296.6
44.8,297.4
48.0,298.3
51.2,299.3
54.4,300.4
57.6,301.7
60.8,303.1
64.0,304.5
67.2,306.1
70.4,307.8
73.6,309.6
76.8,311.5
80.0,313.4
83.2,315.5
86.4,317.6
89.6,319.7
92.8,321.9
96.0,324.2
99.2,326.5
102.4,328.8
105.6,331.2
108.8,333.6
112.0,336.1
115.2,338.5
118.4,341.0
121.6,343.5
124.8,346.0
128.0,348.5
131.2,351.1
134.4,353.6
137.6,356.1
140.8,358.7
144.0,361.2
147.2,363.8
150.4,366.3
153.6,368.9
156.8,371.4
160.0,373.9
163.2,376.5
166.4,379.0
169.6,381.5
172.8,384.0
176.0,386.5
179.2,389.0
182.4,391.4
185.6,393.9
188.8,396.3
192.0,398.7
195.2,401.1
198.4,403.5
201.6,405.9
204.8,408.2
208.0,410.5
211.2,412.8
214.4,415.1
217.6,417.4
220.8,419.6
224.0,421.8
227.2,424.0
230.4,426.1
233.6,428.3
236.8,430.4
240.0,432.5
243.2,434.5
246.4,436.5
249.6,438.5
252.8,440.5
256.0,442.5
259.2,444.4
262.4,446.3
265.6,448.1
268.8,450.0
272.0,451.8
275.2,453.6
278.4,455.4
281.6,457.1
284.8,458.9
288.0,460.6
291.2,462.2
294.4,463.9
297.6,465.6
300.8,467.2
304.0,468.8
307.2,470.4
310.4,472.0
313.6,473.5
316.8,475.1
320.0,476.7
323.2,478.2
326.4,479.7
329.6,481.2
332.8,482.8
336.0,484.3
339.2,485.8
342.4,487.3
345.6,488.8
348.8,490.3
352.0,491.8
355.2,493.3
358.4,494.8
361.6,496.3
364.8,497.8
368.0,499.3
371.2,500.9
374.4,502.4
377.6,503.9
380.8,505.4
384.0,506.9
387.2,508.4
390.4,509.9
393.6,511.5
396.8,513.0
400.0,514.5
403.2,516.0
406.4,517.5
409.6,519.0
412.8,520.5
416.0,521.9
419.2,523.4
422.4,524.8
425.6,526.3
428.8,527.7
432.0,529.1
435.2,530.5
438.4,531.9
441.6,533.2
444.8,534.5
448.0,535.8
451.2,537.1
454.4,538.4
457.6,539.6
460.8,540.8
464.0,542.0
467.2,543.2
470.4,544.3
473.6,545.4
476.8,546.5
480.0,547.6
483.2,548.6
486.4,549.6
489.6,550.6
492.8,551.6
496.0,552.6
499.2,553.5
502.4,554.4
505.6,555.3
508.8,556.2
512.0,557.1
515.2,557.9
518.4,558.7
521.6,559.5
524.8,560.3
528.0,561.1
531.2,561.8
534.4,562.6
537.6,563.3
540.8,564.0
544.0,564.7
547.2,565.3
550.4,566.0
553.6,566.7
556.8,567.3
560.0,567.9
563.2,568.5
566.4,569.1
569.6,569.7
572.8,570.3
576.0,570.8
579.2,571.4
582.4,571.9
585.6,572.4
588.8,572.9
592.0,573.4
595.2,573.9
598.4,574.4
601.6,574.9
604.8,575.4
608.0,575.9
611.2,576.3
614.4,576.8
617.6,577.2
620.8,577.7
624.0,578.1
627.2,578.5
630.4,579.0
633.6,579.4
636.8,579.8
640.0,580.2
643.2,580.6
646.4,581.0
649.6,581.4
652.8,581.8
656.0,582.2
659.2,582.6
662.4,583.0
665.6,583.3
668.8,583.7
672.0,584.1
675.2,584.5
678.4,584.8
681.6,585.2
684.8,585.6
688.0,586.0
691.2,586.3
694.4,586.7
697.6,587.0
700.8,587.4
704.0,587.8
707.2,588.1
710.4,588.5
713.6,588.9
716.8,589.2
720.0,589.6
723.2,589.9
726.4,590.3
729.6,590.7
732.8,591.0
736.0,591.4
739.2,591.7
742.4,592.1
745.6,592.5
748.8,592.8
752.0,593.2
755.2,593.5
758.4,593.9
761.6,594.3
764.8,594.6
768.0,595.0
771.2,595.4
774.4,595.8
777.6,596.1
780.8,596.5
784.0,596.9
787.2,597.2
790.4,597.6
793.6,598.0
796.8,598.4
800.0,598.8