File: PMMA/Validation_Results/NIST-StMU -FSRI/NIST-StMU-FSRI_Gassification_q50_Temp_R5.csv
Time,T_back
[s],[K]
0.0,292.4
2.0,292.4
4.0,292.4
6.0,292.4
8.0,292.4
10.0,292.4
12.0,292.4
14.0,292.4
16.0,292.4
18.0,292.4
20.0,292.5
22.0,292.5
24.0,292.6
26.0,292.7
28.0,292.9
30.0,293.2
32.0,293.5
34.0,293.8
36.0,294.3
38.0,294.8
40.0,295.5
42.0,296.2
44.0,297.0
46.0,297.9
48.0,298.9
50.0,300.0
52.0,301.2
54.0,302.4
56.0,303.8
58.0,305.2
60.0,306.7
62.0,308.3
64.0,310.0
66.0,311.8
68.0,313.6
70.0,315.5
72.0,317.4
74.0,319.4
76.0,321.5
78.0,323.6
80.0,325.8
82.0,328.0
84.0,330.2
86.0,332.5
88.0,334.9
90.0,337.2
92.0,339.6
94.0,342.0
96.0,344.5
98.0,347.0
100.0,349.4
102.0,351.9
104.0,354.5
106.0,357.0
108.0,359.5
110.0,362.1
112.0,364.7
114.0,367.2
116.0,369.8
118.0,372.4
120.0,374.9
122.0,377.5
124.0,380.1
126.0,382.7
128.0,385.2
130.0,387.8
132.0,390.4
134.0,392.9
136.0,395.5
138.0,398.0
140.0,400.6
142.0,403.1
144.0,405.6
146.0,408.2
148.0,410.7
150.0,413.2
152.0,415.6
154.0,418.1
156.0,420.6
158.0,423.0
160.0,425.5
162.0,427.9
164.0,430.3
166.0,432.7
168.0,435.1
170.0,437.5
172.0,439.8
174.0,442.2
176.0,444.5
178.0,446.8
180.0,449.1
182.0,451.4
184.0,453.7
186.0,455.9
188.0,458.2
190.0,460.4
192.0,462.6
194.0,464.8
196.0,467.0
198.0,469.2
200.0,471.3
202.0,473.5
204.0,475.6
206.0,477.8
208.0,479.9
210.0,482.0
212.0,484.1
214.0,486.3
216.0,488.4
218.0,490.5
220.0,492.6
222.0,494.8
224.0,496.9
226.0,499.1
228.0,501.2
230.0,503.4
232.0,505.6
234.0,507.8
236.0,510.0
238.0,512.3
240.0,514.6
242.0,516.9
244.0,519.2
246.0,521.5
248.0,523.9
250.0,526.3
252.0,528.7
254.0,531.1
256.0,533.6
258.0,536.1
260.0,538.6
262.0,541.1
264.0,543.6
266.0,546.1
268.0,548.7
270.0,551.2
272.0,553.7
274.0,556.2
276.0,558.7
278.0,561.1
280.0,563.5
282.0,565.9
284.0,568.3
286.0,570.6
288.0,572.8
290.0,575.1
292.0,577.2
294.0,579.4
296.0,581.4
298.0,583.5
300.0,585.5
302.0,587.4
304.0,589.3
306.0,591.1
308.0,593.0
310.0,594.7
312.0,596.5
314.0,598.2
316.0,599.9
318.0,601.5
320.0,603.1
322.0,604.8
324.0,606.3
326.0,607.9
328.0,609.5
330.0,611.1
332.0,612.6
334.0,614.2
336.0,615.8
338.0,617.3
340.0,618.9
342.0,620.5
344.0,622.2
346.0,623.8
348.0,625.5
350.0,627.2
352.0,629.0
354.0,630.8
356.0,632.6
358.0,634.5
360.0,636.4
362.0,638.4
364.0,640.4
366.0,642.6
368.0,644.8
370.0,647.0
372.0,649.4
374.0,651.9
376.0,654.5
378.0,657.3
380.0,660.2
382.0,663.2
384.0,666.4
386.0,669.8
388.0,673.3
390.0,677.0
392.0,680.9
394.0,685.0
396.0,689.1
398.0,693.5
400.0,698.1
402.0,703.6
404.0,709.6
406.0,718.0
408.0,728.4
410.0,748.3
412.0,788.8
414.0,825.5
416.0,841.2
418.0,850.1
420.0,856.1
422.0,860.4
424.0,863.7
426.0,866.5
428.0,868.7
430.0,870.7
432.0,872.3
434.0,873.8
436.0,875.2
438.0,876.3
440.0,877.4
442.0,878.4
444.0,879.3
446.0,880.2
448.0,880.9
450.0,881.7
452.0,882.3
454.0,883.0
456.0,883.6
458.0,884.1
460.0,884.7
462.0,885.2
464.0,885.7
466.0,886.1
468.0,886.6
470.0,887.0
472.0,887.4
474.0,887.8
476.0,888.1
478.0,888.5
480.0,888.8
482.0,889.2
484.0,889.5
486.0,889.8
488.0,890.1
490.0,890.4
492.0,890.7
494.0,890.9
496.0,891.2
498.0,891.4
500.0,891.7