File: PMMA/Validation_Results/NIST-StMU -FSRI/NIST-StMU-FSRI_Gassification_q50_Temp_R2.csv
Time,T_back
[s],[K]
0.0,292.6
2.0,292.6
4.0,292.6
6.0,292.6
8.0,292.6
10.0,292.6
12.0,292.6
14.0,292.6
16.0,292.6
18.0,292.7
20.0,292.8
22.0,293.0
24.0,293.3
26.0,293.7
28.0,294.2
30.0,294.8
32.0,295.5
34.0,296.3
36.0,297.3
38.0,298.4
40.0,299.7
42.0,301.1
44.0,302.6
46.0,304.2
48.0,306.0
50.0,307.9
52.0,309.8
54.0,311.9
56.0,314.1
58.0,316.4
60.0,318.8
62.0,321.2
64.0,323.8
66.0,326.4
68.0,329.1
70.0,331.8
72.0,334.6
74.0,337.4
76.0,340.3
78.0,343.2
80.0,346.2
82.0,349.2
84.0,352.2
86.0,355.3
88.0,358.3
90.0,361.4
92.0,364.5
94.0,367.6
96.0,370.7
98.0,373.8
100.0,376.9
102.0,380.0
104.0,383.1
106.0,386.2
108.0,389.3
110.0,392.4
112.0,395.5
114.0,398.5
116.0,401.6
118.0,404.6
120.0,407.6
122.0,410.6
124.0,413.6
126.0,416.6
128.0,419.5
130.0,422.4
132.0,425.3
134.0,428.2
136.0,431.0
138.0,433.9
140.0,436.7
142.0,439.4
144.0,442.2
146.0,444.9
148.0,447.6
150.0,450.3
152.0,453.0
154.0,455.6
156.0,458.2
158.0,460.8
160.0,463.3
162.0,465.9
164.0,468.4
166.0,470.9
168.0,473.3
170.0,475.8
172.0,478.2
174.0,480.6
176.0,483.0
178.0,485.4
180.0,487.8
182.0,490.2
184.0,492.6
186.0,495.0
188.0,497.3
190.0,499.7
192.0,502.1
194.0,504.5
196.0,506.9
198.0,509.3
200.0,511.8
202.0,514.2
204.0,516.7
206.0,519.2
208.0,521.7
210.0,524.3
212.0,526.8
214.0,529.4
216.0,532.0
218.0,534.7
220.0,537.3
222.0,540.0
224.0,542.7
226.0,545.4
228.0,548.1
230.0,550.8
232.0,553.5
234.0,556.2
236.0,558.8
238.0,561.4
240.0,564.0
242.0,566.6
244.0,569.1
246.0,571.5
248.0,573.9
250.0,576.3
252.0,578.5
254.0,580.8
256.0,583.0
258.0,585.1
260.0,587.1
262.0,589.1
264.0,591.1
266.0,593.0
268.0,594.9
270.0,596.7
272.0,598.5
274.0,600.2
276.0,602.0
278.0,603.6
280.0,605.3
282.0,606.9
284.0,608.6
286.0,610.2
288.0,611.8
290.0,613.4
292.0,615.0
294.0,616.6
296.0,618.2
298.0,619.8
300.0,621.4
302.0,623.1
304.0,624.8
306.0,626.5
308.0,628.2
310.0,630.0
312.0,631.8
314.0,633.7
316.0,635.6
318.0,637.6
320.0,639.6
322.0,641.7
324.0,643.9
326.0,646.1
328.0,648.5
330.0,650.9
332.0,653.4
334.0,656.1
336.0,659.0
338.0,662.0
340.0,665.1
342.0,668.4
344.0,671.8
346.0,675.5
348.0,679.3
350.0,683.3
352.0,687.3
354.0,691.5
356.0,696.0
358.0,701.0
360.0,706.4
362.0,713.6
364.0,721.9
366.0,736.9
368.0,765.3
370.0,812.7
372.0,835.2
374.0,846.2
376.0,853.1
378.0,857.9
380.0,861.6
382.0,864.5
384.0,867.0
386.0,869.0
388.0,870.8
390.0,872.4
392.0,873.7
394.0,875.0
396.0,876.1
398.0,877.1
400.0,878.1
402.0,878.9
404.0,879.7
406.0,880.5
408.0,881.2
410.0,881.8
412.0,882.5
414.0,883.0
416.0,883.6
418.0,884.1
420.0,884.6
422.0,885.1
424.0,885.5
426.0,886.0
428.0,886.4
430.0,886.8
432.0,887.1
434.0,887.5
436.0,887.9
438.0,888.2
440.0,888.5
442.0,888.8
444.0,889.1
446.0,889.4
448.0,889.7
450.0,890.0
452.0,890.3
454.0,890.5
456.0,890.8
458.0,891.0
460.0,891.2
462.0,891.5
464.0,891.7
466.0,891.9
468.0,892.1
470.0,892.3
472.0,892.5
474.0,892.7
476.0,892.9
478.0,893.1
480.0,893.3
482.0,893.5
484.0,893.6
486.0,893.8
488.0,894.0
490.0,894.1
492.0,894.3
494.0,894.5
496.0,894.6
498.0,894.8
500.0,894.9