File: Non-charring/PMMA/GIDAZE+/GIDAZE+_FPA_25kW_Temp_2.csv
Time,Back surface temperature
[s],[K]
1,299.291
3,299.282
5,299.287
7,299.286
9,299.293
11,299.339
13,299.372
15,299.482
17,299.805
19,299.967
21,300.16
23,300.364
25,300.589
27,300.838
29,301.076
31,301.348
33,301.637
35,301.957
37,302.301
39,302.656
41,303.045
43,303.432
45,303.884
47,304.304
49,304.745
51,305.24
53,305.76
55,306.295
57,306.85
59,307.462
61,308.065
63,308.689
65,309.331
67,309.941
69,310.589
71,311.262
73,311.97
75,312.677
77,313.493
79,314.296
81,315.164
83,316.076
85,317.02
87,318.027
89,319.081
91,320.145
93,321.289
95,322.462
97,323.703
99,325.055
101,326.447
103,327.954
105,329.476
107,330.914
109,332.559
111,334.034
113,335.344
115,336.687
117,338.391
119,340.202
121,341.936
123,343.418
125,345.288
127,346.573
129,348.066
131,350.355
133,353.34
135,357.402
137,360.667
139,362.75
141,364.202
143,365.407
145,366.347
147,367.201
149,367.308
151,364.475
153,361.936
155,358.596
157,352.915
159,348.581
161,344.868
163,342.007
165,339.806
167,338.198
169,336.986
171,336.2
173,335.671
175,335.215
177,334.988
179,334.852
181,334.721
183,334.689
185,334.642
187,334.694
189,334.749
191,334.799
193,334.914
195,335.034
197,335.192
199,335.348
201,335.519
203,335.689
205,335.89
207,336.125
209,336.346
211,336.624
213,336.888
215,337.151
217,337.448
219,337.705
221,337.994
223,338.35
225,338.703
227,339.033
229,339.362
231,339.72
233,340.046
235,340.309
237,340.585
239,340.941
241,341.296
243,341.581
245,341.855
247,342.234
249,342.61
251,343.021
253,343.377
255,343.754
257,344.139
259,344.597
261,345.008
263,345.43
265,345.862
267,346.306
269,346.764
271,347.143
273,347.609
275,348.074
277,348.451
279,348.898
281,349.256
283,349.693
285,350.041
287,350.415
289,350.754
291,351.181
293,351.667
295,352.041
297,352.401
299,352.653
301,353.137
303,353.559
305,353.867
307,354.283
309,354.61
311,355.131
313,355.617
315,356.186
317,356.862
319,357.644
321,358.467
323,358.904
325,359.553
327,360.234
329,360.973
331,361.744
333,362.575
335,363.429
337,364.427
339,365.441
341,366.614
343,367.993
345,369.565
347,371.163
349,372.716
351,374.348
353,376.067
355,377.856
357,380.072
359,382.775
361,385.648
363,388.467
365,390.991
367,393.391
369,395.151
371,397.299
373,399.661
375,401.977
377,404.654
379,407.517
381,410.288
383,413.021
385,415.938
387,418.482
389,422.391
391,428.059
393,434.26
395,440.592
397,446.815
399,454.717
401,465.477
403,471.249
405,471.504
407,469.996
409,467.482
411,466.823
413,465.57
415,465.418
417,464.246
419,463.796
421,464.117
423,465.089
425,465.708
427,466.592
429,467.604
431,468.808
433,469.183
435,469.973
437,470.775
439,472.182
441,473.327
443,474.374
445,474.663
447,475.965
449,476.675
451,477.766
453,478.173
455,480.057
457,480.394
459,481.276
461,482.174
463,482.857
465,483.757
467,484.894
469,485.09
471,486.397
473,487.31
475,488.011
477,489.23
479,489.853
481,490.657
483,491.556
485,492.388
487,492.896
489,493.751
491,494.746
493,495.41
495,496.071
497,496.928
499,497.858
501,498.525
503,499.696
505,500.139
507,500.829
509,501.681
511,501.884
513,502.986
515,503.67
517,503.861
519,505.172
521,505.834
523,506.477
525,506.712
527,507.34
529,508.643
531,508.887
533,510.202
535,510.472
537,511.074
539,511.782
541,512.303
542,512.782