File: PMMA/Validation_Results/BUW-FZJ/BUW-FZJ_B_Gasification_q50_Mass_R5.csv
Time,Mass
[s],[g]
0.0,28.0385
2.1128,28.0385
4.0496,28.0385
6.1624,28.0385
8.0991,28.0385
10.0359,28.0385
12.1487,28.0385
14.0855,28.0384
16.0222,28.0383
18.135,28.038
20.0718,28.0373
22.0085,28.0357
24.1213,28.0323
26.0581,28.0266
28.1709,28.0161
30.1077,28.0011
32.0444,27.9787
34.1572,27.9484
36.094,27.9118
38.0307,27.8657
40.1435,27.8118
42.0803,27.7538
44.017,27.6869
46.1299,27.6143
48.0666,27.54
50.0034,27.4579
52.1162,27.3716
54.0529,27.2815
56.1657,27.1881
58.1025,27.0959
60.0392,26.9967
62.1521,26.8949
64.0888,26.7953
66.0256,26.6891
68.1384,26.5808
70.0751,26.4754
72.0119,26.3636
74.1247,26.2502
76.0614,26.1402
78.1743,26.0188
80.111,25.9063
82.0478,25.7874
84.1606,25.6673
86.0973,25.5515
88.0341,25.4294
90.1469,25.3062
92.0837,25.1876
94.0204,25.0627
96.1332,24.937
98.07,24.816
100.0067,24.6888
102.1195,24.5608
104.0563,24.4321
106.1691,24.3027
108.1059,24.1783
110.0426,24.0476
112.1554,23.9162
114.0922,23.79
116.0289,23.6575
118.1417,23.5243
120.0785,23.3964
122.0152,23.262
124.1281,23.1271
126.0648,22.9974
128.0016,22.8613
130.1144,22.7245
132.0511,22.5871
134.1639,22.4491
136.1007,22.3165
138.0374,22.1773
140.1503,22.0375
142.087,21.9031
144.0238,21.762
146.1366,21.6203
148.0733,21.4842
150.0101,21.3413
152.1229,21.1977
154.0596,21.0598
156.1725,20.9086
158.1092,20.7695
160.046,20.6234
162.1588,20.4766
164.0955,20.3356
166.0323,20.1876
168.1451,20.0389
170.0818,19.896
172.0186,19.746
174.1314,19.5954
176.0682,19.4506
178.0049,19.2985
180.1177,19.1458
182.0545,18.9923
184.1673,18.8382
186.104,18.69
188.0408,18.5344
190.1536,18.378
192.0904,18.2277
194.0271,18.0699
196.1399,17.9113
198.0767,17.7588
200.0134,17.5987
202.1263,17.4377
204.063,17.2829
206.1758,17.1132
208.1126,16.9568
210.0493,16.7925
212.1621,16.6272
214.0989,16.4684
216.0356,16.3014
218.1485,16.1335
220.0852,15.9721
222.022,15.8023
224.1348,15.6316
226.0715,15.4673
228.0083,15.2946
230.1211,15.1209
232.0578,14.9537
234.1707,14.7703
236.1074,14.6011
238.0442,14.4231
240.157,14.2439
242.0937,14.0715
244.0305,13.89
246.1433,13.7073
248.08,13.5314
250.0168,13.3462
252.1296,13.1597
254.0664,12.9802
256.0031,12.7911
258.1159,12.6006
260.0527,12.4087
262.1655,12.2152
264.1023,12.0288
266.039,11.8324
268.1518,11.6344
270.0886,11.4435
272.0253,11.2423
274.1381,11.0394
276.0749,10.8437
278.0116,10.6373
280.1245,10.4291
282.0612,10.2283
284.174,10.0071
286.1108,9.8026
288.0475,9.5869
290.1603,9.3692
292.0971,9.1591
294.0338,8.9374
296.1467,8.7138
298.0834,8.498
300.0202,8.2704
302.133,8.0409
304.0697,7.8195
306.0065,7.5862
308.1193,7.351
310.056,7.114
312.1689,6.8752
314.1056,6.6453
316.0424,6.4034
318.1552,6.1599
320.0919,5.9257
322.0287,5.6795
324.1415,5.432
326.0783,5.1941
328.015,4.9443
330.1278,4.6933
332.0646,4.4524
334.0013,4.1996
336.1141,3.9458
338.0509,3.6913
340.1637,3.4361
342.1005,3.1913
344.0372,2.9349
346.15,2.6781
348.0868,2.4321
350.0235,2.175
352.1363,1.9181
354.0731,1.6729
356.0098,1.4176
358.1226,1.1643
360.0594,0.9251
362.1722,0.6697
364.109,0.4448
366.0457,0.2277
368.1585,0.055
370.0953,0.0001
372.032,-0.0
374.1449,-0.0
376.0816,-0.0
378.0184,-0.0
380.1312,-0.0
382.0679,-0.0
384.0047,-0.0
386.1175,-0.0
388.0542,-0.0
390.1671,-0.0
392.1038,-0.0
394.0406,-0.0
396.1534,-0.0
398.0901,-0.0
400.0269,-0.0
402.1397,-0.0
404.0764,-0.0
406.0132,-0.0
408.126,-0.0
410.0628,-0.0
412.1756,-0.0
414.1123,-0.0
416.0491,-0.0
418.1619,-0.0
420.0986,-0.0
422.0354,-0.0
424.1482,-0.0
426.085,-0.0
428.0217,-0.0
430.1345,-0.0
432.0713,-0.0
434.008,-0.0
436.1208,-0.0
438.0576,-0.0
440.1704,-0.0
442.1072,-0.0
444.0439,-0.0
446.1567,-0.0
448.0935,-0.0
450.0302,-0.0
452.1431,-0.0
454.0798,-0.0
456.0166,-0.0
458.1294,-0.0
460.0661,-0.0
462.0029,-0.0
464.1157,-0.0
466.0524,-0.0
468.1653,-0.0
470.102,-0.0
472.0388,-0.0
474.1516,-0.0
476.0883,-0.0
478.0251,-0.0
480.1379,-0.0
482.0746,-0.0
484.0114,-0.0
486.1242,-0.0
488.061,-0.0
490.1738,-0.0
492.1105,-0.0
494.0473,-0.0
496.1601,-0.0
498.0968,-0.0
500.0,-0.0