File: PMMA/Validation_Results/BUW-FZJ/BUW-FZJ_C_Gasification_q50_Temp_R2.csv
Time,T_back_1
[s],[K]
0.0,291.2
2.1128,291.1999
4.0496,291.1998
6.1624,291.2
8.0991,291.2048
10.0359,291.2367
12.1487,291.3413
14.0855,291.5561
16.0222,291.9396
18.135,292.5102
20.0718,293.2353
22.0085,294.1758
24.1213,295.2919
26.0581,296.5067
28.1709,297.9777
30.1077,299.4432
32.0444,301.0783
34.1572,302.8049
36.094,304.5286
38.0307,306.3945
40.1435,308.3154
42.0803,310.1947
44.017,312.1946
46.1299,314.2226
48.0666,316.1813
50.0034,318.2416
52.1162,320.3075
54.0529,322.3712
56.1657,324.4236
58.1025,326.3809
60.0392,328.4245
62.1521,330.4649
64.0888,332.4114
66.0256,334.44
68.1384,336.4602
70.0751,338.3839
72.0119,340.3834
74.1247,342.3714
76.0614,344.26
78.1743,346.3052
80.111,348.1647
82.0478,350.0921
84.1606,352.0019
86.0973,353.8115
88.0341,355.6835
90.1469,357.5347
92.0837,359.2856
94.0204,361.0943
96.1332,362.879
98.07,364.5632
100.0067,366.2989
102.1195,368.0074
104.0563,369.6869
106.1691,371.3346
108.1059,372.8808
110.0426,374.4613
112.1554,376.0094
114.0922,377.4679
116.0289,378.973
118.1417,380.4614
120.0785,381.871
122.0152,383.3333
124.1281,384.7856
126.0648,386.1665
128.0016,387.6031
130.1144,389.0344
132.0511,390.4623
134.1639,391.8868
136.1007,393.2486
138.0374,394.6717
140.1503,396.0966
142.087,397.4616
144.0238,398.8916
146.1366,400.3273
148.0733,401.7058
150.0101,403.154
152.1229,404.6097
154.0596,406.0122
156.1725,407.5544
158.1092,408.9796
160.046,410.4838
162.1588,412.0037
164.0955,413.4741
166.0323,415.0316
168.1451,416.6101
170.0818,418.1434
172.0186,419.7731
174.1314,421.4327
176.0682,423.0544
178.0049,424.7841
180.1177,426.5421
182.0545,428.3261
184.1673,430.1381
186.104,431.8976
188.0408,433.7658
190.1536,435.6656
192.0904,437.5141
194.0271,439.4811
196.1399,441.4848
198.0767,443.4389
200.0134,445.5223
202.1263,447.6507
204.063,449.7311
206.1758,452.0543
208.1126,454.2373
210.0493,456.5773
212.1621,458.9824
214.0989,461.3485
216.0356,463.8987
218.1485,466.5359
220.0852,469.1476
222.022,471.9866
224.1348,474.9569
226.0715,477.9304
228.0083,481.1774
230.1211,484.5704
232.0578,487.9605
234.1707,491.8266
236.1074,495.5369
238.0442,499.595
240.157,503.8525
242.0937,508.1218
244.0305,512.8034
246.1433,517.7271
248.08,522.6752
250.0168,528.1125
252.1296,533.8607
254.0664,539.695
256.0031,546.1786
258.1159,553.1592
260.0527,560.826
262.1655,569.6798
264.1023,579.1315
266.039,586.8957
268.1518,593.1672
270.0886,598.3466
272.0253,603.0322
274.1381,607.116
276.0749,610.6109
278.0116,613.9071
280.1245,616.8847
282.0612,619.5021
284.174,622.136
286.1108,624.3823
288.0475,626.5956
290.1603,628.7018
292.0971,630.6338
294.0338,632.5891
296.1467,634.4971
298.0834,636.2918
300.0202,638.1449
302.133,639.9906
304.0697,641.742
306.0065,643.5907
308.1193,645.4405
310.056,647.3123
312.1689,649.2104
314.1056,651.036
316.0424,652.9909
318.1552,654.9889
320.0919,656.933
322.0287,659.0307
324.1415,661.1844
326.0783,663.305
328.015,665.6352
330.1278,668.0585
332.0646,670.4663
334.0013,673.1462
336.1141,676.0572
338.0509,679.1593
340.1637,682.527
342.1005,686.1731
344.0372,690.5262
346.15,695.6304
348.0868,701.6304
350.0235,709.9484
352.1363,722.5374
354.0731,745.7057
356.0098,802.5035
358.1226,836.4263
360.0594,851.2084
362.1722,860.5178
364.109,866.2376
366.0457,870.751
368.1585,874.3658
370.0953,877.2728
372.032,879.9031
374.1449,882.219
376.0816,884.2122
378.0184,886.1002
380.1312,887.8316
382.0679,889.3587
384.0047,890.841
386.1175,892.214
388.0542,893.4975
390.1671,894.6952
392.1038,895.7667
394.0406,896.8129
396.1534,897.7952
398.0901,898.6899
400.0269,899.5506
402.1397,900.3861
404.0764,901.1173
406.0132,901.865
408.126,902.5502
410.0628,903.1803
412.1756,903.8429
414.1123,904.4094
416.0491,904.9609
418.1619,905.4963
420.0986,905.9933
422.0354,906.485
424.1482,906.9477
426.085,907.3722
428.0217,907.7932
430.1345,908.1971
432.0713,908.5658
434.008,908.9351
436.1208,909.2887
438.0576,909.6123
440.1704,909.9508
442.1072,910.2499
444.0439,910.5481
446.1567,910.8366
448.0935,911.1022
450.0302,911.3682
452.1431,911.6257
454.0798,911.8632
456.0166,912.1022
458.1294,912.3331
460.0661,912.5474
462.0029,912.7635
464.1157,912.9716
466.0524,913.1518
468.1653,913.3482
470.102,913.5273
472.0388,913.7108
474.1516,913.9107
476.0883,914.0745
478.0251,914.2417
480.1379,914.3893
482.0746,914.5353
484.0114,914.6886
486.1242,914.8376
488.061,914.9995
490.1738,915.1476
492.1105,915.2801
494.0473,915.3947
496.1601,915.5282
498.0968,915.6506
500.0,915.7974