File: PMMA/Validation_Results/BUW-FZJ/BUW-FZJ_B_Gasification_q50_Temp_R1.csv
Time,T_back_1
[s],[K]
0.0,290.65
2.1128,290.65
4.0496,290.65
6.1624,290.65
8.0991,290.65
10.0359,290.6501
12.1487,290.651
14.0855,290.6552
16.0222,290.6689
18.135,290.7023
20.0718,290.7646
22.0085,290.8762
24.1213,291.0515
26.0581,291.2922
28.1709,291.6506
30.1077,292.0779
32.0444,292.6345
34.1572,293.3116
36.094,294.0753
38.0307,294.9979
40.1435,296.05
42.0803,297.1757
44.017,298.4758
46.1299,299.9004
48.0666,301.3747
50.0034,303.0283
52.1162,304.7926
54.0529,306.6605
56.1657,308.6273
58.1025,310.5944
60.0392,312.7346
62.1521,314.9551
64.0888,317.1477
66.0256,319.5061
68.1384,321.9272
70.0751,324.2961
72.0119,326.8234
74.1247,329.3984
76.0614,331.9015
78.1743,334.6728
80.111,337.247
82.0478,339.9692
84.1606,342.7204
86.0973,345.3762
88.0341,348.1756
90.1469,350.9963
92.0837,353.7121
94.0204,356.5682
96.1332,359.4399
98.07,362.1998
100.0067,365.0975
102.1195,368.0067
104.0563,370.9262
106.1691,373.8552
108.1059,376.6647
110.0426,379.6096
112.1554,382.5615
114.0922,385.3911
116.0289,388.3552
118.1417,391.3249
120.0785,394.1711
122.0152,397.1511
124.1281,400.1357
126.0648,402.9944
128.0016,405.9872
130.1144,408.9837
132.0511,411.9839
134.1639,414.9878
136.1007,417.8643
138.0374,420.8749
140.1503,423.8889
142.087,426.775
144.0238,429.7956
146.1366,432.8197
148.0733,435.7155
150.0101,438.7463
152.1229,441.7805
154.0596,444.6863
156.1725,447.8599
158.1092,450.7724
160.046,453.8208
162.1588,456.8729
164.0955,459.7953
166.0323,462.8542
168.1451,465.9169
170.0818,468.8499
172.0186,471.9199
174.1314,474.9936
176.0682,477.9374
178.0049,481.019
180.1177,484.1042
182.0545,487.1929
184.1673,490.2851
186.104,493.2459
188.0408,496.3442
190.1536,499.445
192.0904,502.4136
194.0271,505.5196
196.1399,508.6284
198.0767,511.6037
200.0134,514.7153
202.1263,517.8279
204.063,520.8053
206.1758,524.0528
208.1126,527.0277
210.0493,530.136
212.1621,533.2415
214.0989,536.2082
216.0356,539.303
218.1485,542.3883
220.0852,545.332
222.022,548.3962
224.1348,551.447
226.0715,554.3512
228.0083,557.3719
230.1211,560.3732
232.0578,563.2208
234.1707,566.302
236.1074,569.1014
238.0442,571.9998
240.157,574.867
242.0937,577.578
244.0305,580.3778
246.1433,583.1394
248.08,585.742
250.0168,588.4193
252.1296,591.0536
254.0664,593.5335
256.0031,596.0868
258.1159,598.6014
260.0527,601.0818
262.1655,603.5306
264.1023,605.8496
266.039,608.2546
268.1518,610.648
270.0886,612.9334
272.0253,615.3272
274.1381,617.736
276.0749,620.0629
278.0116,622.5309
280.1245,625.0477
282.0612,627.5111
284.174,630.2763
286.1108,632.8965
288.0475,635.7371
290.1603,638.7008
292.0971,641.6711
294.0338,644.943
296.1467,648.4174
298.0834,651.9642
300.0202,655.9509
302.133,660.2895
304.0697,664.8417
306.0065,670.1366
308.1193,676.1583
310.056,683.1942
312.1689,691.7469
314.1056,702.2854
316.0424,718.4621
318.1552,750.4931
320.0919,806.6958
322.0287,843.0711
324.1415,863.3505
326.0783,875.4462
328.015,883.9087
330.1278,889.8424
332.0646,894.0691
334.0013,897.5078
336.1141,900.2628
338.0509,902.5487
340.1637,904.4839
342.1005,906.0924
344.0372,907.585
346.15,908.9189
348.0868,910.0714
350.0235,911.1667
352.1363,912.1662
354.0731,913.0453
356.0098,913.8955
358.1226,914.684
360.0594,915.3882
362.1722,916.1065
364.109,916.724
366.0457,917.3334
368.1585,917.9086
370.0953,918.4294
372.032,918.946
374.1449,919.4374
376.0816,919.8858
378.0184,920.333
380.1312,920.7607
382.0679,921.1525
384.0047,921.5452
386.1175,921.9223
388.0542,922.2836
390.1671,922.6332
392.1038,922.953
394.0406,923.2779
396.1534,923.5903
398.0901,923.8786
400.0269,924.1713
402.1397,924.4536
404.0764,924.7161
406.0132,924.9806
408.126,925.2387
410.0628,925.4772
412.1756,925.7303
414.1123,925.9556
416.0491,926.1859
418.1619,926.4111
420.0986,926.6226
422.0354,926.8373
424.1482,927.0473
426.085,927.2439
428.0217,927.4439
430.1345,927.6391
432.0713,927.8204
434.008,928.0072
436.1208,928.1888
438.0576,928.3577
440.1704,928.5383
442.1072,928.7007
444.0439,928.8648
446.1567,929.0268
448.0935,929.1782
450.0302,929.3327
452.1431,929.4835
454.0798,929.6254
456.0166,929.7701
458.1294,929.9124
460.0661,930.0463
462.0029,930.1825
464.1157,930.3157
466.0524,930.4469
468.1653,930.5766
470.102,930.6981
472.0388,930.8216
474.1516,930.9434
476.0883,931.0576
478.0251,931.1757
480.1379,931.2915
482.0746,931.4
484.0114,931.5124
486.1242,931.6227
488.061,931.7259
490.1738,931.8363
492.1105,931.9372
494.0473,932.0403
496.1601,932.1422
498.0968,932.2378
500.0,932.3345