File: PMMA/Validation_Results/BUW-FZJ/BUW-FZJ_ApproachA_Gasification_q50_Mass_R5.csv
Time,Mass
[s],[g]
0.0,27.8206
2.1128,27.8206
4.0496,27.8205
6.1624,27.8204
8.0991,27.8201
10.0359,27.8194
12.1487,27.818
14.0855,27.8157
16.0222,27.8121
18.135,27.8073
20.0718,27.8014
22.0085,27.794
24.1213,27.7852
26.0581,27.7751
28.1709,27.7615
30.1077,27.7459
32.0444,27.7253
34.1572,27.6991
36.094,27.6682
38.0307,27.6289
40.1435,27.5821
42.0803,27.5303
44.017,27.469
46.1299,27.4006
48.0666,27.3292
50.0034,27.2487
52.1162,27.1626
54.0529,27.0716
56.1657,26.9761
58.1025,26.8809
60.0392,26.7778
62.1521,26.6713
64.0888,26.5665
66.0256,26.4542
68.1384,26.3392
70.0751,26.2271
72.0119,26.1078
74.1247,25.9864
76.0614,25.8686
78.1743,25.7383
80.111,25.6174
82.0478,25.4895
84.1606,25.3603
86.0973,25.2356
88.0341,25.104
90.1469,24.9714
92.0837,24.8437
94.0204,24.7092
96.1332,24.5739
98.07,24.4438
100.0067,24.307
102.1195,24.1695
104.0563,24.0314
106.1691,23.8927
108.1059,23.7595
110.0426,23.6197
112.1554,23.4794
114.0922,23.3447
116.0289,23.2035
118.1417,23.0618
120.0785,22.9259
122.0152,22.7835
124.1281,22.6406
126.0648,22.5036
128.0016,22.36
130.1144,22.2161
132.0511,22.0718
134.1639,21.9273
136.1007,21.7887
138.0374,21.6435
140.1503,21.4979
142.087,21.3585
144.0238,21.2123
146.1366,21.0659
148.0733,20.9256
150.0101,20.7785
152.1229,20.6312
154.0596,20.49
156.1725,20.3356
158.1092,20.1938
160.046,20.0452
162.1588,19.8963
164.0955,19.7536
166.0323,19.604
168.1451,19.4541
170.0818,19.3104
172.0186,19.1598
174.1314,19.0089
176.0682,18.8641
178.0049,18.7125
180.1177,18.5604
182.0545,18.4079
184.1673,18.255
186.104,18.1084
188.0408,17.9547
190.1536,17.8005
192.0904,17.6526
194.0271,17.4975
196.1399,17.342
198.0767,17.1927
200.0134,17.0361
202.1263,16.8791
204.063,16.7282
206.1758,16.5631
208.1126,16.4113
210.0493,16.2519
212.1621,16.092
214.0989,15.9384
216.0356,15.7773
218.1485,15.6154
220.0852,15.46
222.022,15.2969
224.1348,15.133
226.0715,14.9756
228.0083,14.8103
230.1211,14.6441
232.0578,14.4844
234.1707,14.3095
236.1074,14.1483
238.0442,13.9791
240.157,13.8089
242.0937,13.6454
244.0305,13.4735
246.1433,13.3007
248.08,13.1346
250.0168,12.96
252.1296,12.7843
254.0664,12.6154
256.0031,12.4378
258.1159,12.2593
260.0527,12.0797
262.1655,11.899
264.1023,11.7252
266.039,11.5423
268.1518,11.3582
270.0886,11.1811
272.0253,10.9948
274.1381,10.8074
276.0749,10.6268
278.0116,10.4369
280.1245,10.2455
282.0612,10.0611
284.174,9.8584
286.1108,9.671
288.0475,9.4735
290.1603,9.2743
292.0971,9.082
294.0338,8.879
296.1467,8.674
298.0834,8.4759
300.0202,8.2664
302.133,8.0543
304.0697,7.8492
306.0065,7.6322
308.1193,7.4123
310.056,7.1896
312.1689,6.9641
314.1056,6.7455
316.0424,6.5141
318.1552,6.2797
320.0919,6.0528
322.0287,5.8126
324.1415,5.5695
326.0783,5.3345
328.015,5.0862
330.1278,4.8353
332.0646,4.593
334.0013,4.3376
336.1141,4.08
338.0509,3.8205
340.1637,3.5593
342.1005,3.3082
344.0372,3.0446
346.15,2.7805
348.0868,2.527
350.0235,2.262
352.1363,1.9978
354.0731,1.746
356.0098,1.4844
358.1226,1.2275
360.0594,0.9863
362.1722,0.7285
364.109,0.4994
366.0457,0.2748
368.1585,0.0902
370.0953,0.0038
372.032,-0.0
374.1449,-0.0
376.0816,-0.0
378.0184,-0.0
380.1312,-0.0
382.0679,-0.0
384.0047,-0.0
386.1175,-0.0
388.0542,-0.0
390.1671,-0.0
392.1038,-0.0
394.0406,-0.0
396.1534,-0.0
398.0901,-0.0
400.0269,-0.0
402.1397,-0.0
404.0764,-0.0
406.0132,-0.0
408.126,-0.0
410.0628,-0.0
412.1756,-0.0
414.1123,-0.0
416.0491,-0.0
418.1619,-0.0
420.0986,-0.0
422.0354,-0.0
424.1482,-0.0
426.085,-0.0
428.0217,-0.0
430.1345,-0.0
432.0713,-0.0
434.008,-0.0
436.1208,-0.0
438.0576,-0.0
440.1704,-0.0
442.1072,-0.0
444.0439,-0.0
446.1567,-0.0
448.0935,-0.0
450.0302,-0.0
452.1431,-0.0
454.0798,-0.0
456.0166,-0.0
458.1294,-0.0
460.0661,-0.0
462.0029,-0.0
464.1157,-0.0
466.0524,-0.0
468.1653,-0.0
470.102,-0.0
472.0388,-0.0
474.1516,-0.0
476.0883,-0.0
478.0251,-0.0
480.1379,-0.0
482.0746,-0.0
484.0114,-0.0
486.1242,-0.0
488.061,-0.0
490.1738,-0.0
492.1105,-0.0
494.0473,-0.0
496.1601,-0.0
498.0968,-0.0
500.0,-0.0