File: PMMA/Validation_Results/BUW-FZJ/BUW-FZJ_PMMA01_Gasification_q50_Temp_R3.csv
Time,T_back_1
[s],[K]
0.0,291.2
2.112818,291.2
4.04957,291.2
6.16239,291.2
8.09914,291.2
10.0359,291.206
12.1487,291.234
14.0855,291.303
16.0222,291.449
18.135,291.696
20.0718,292.041
22.0085,292.527
24.1213,293.143
26.0581,293.851
28.1709,294.75
30.1077,295.683
32.0444,296.759
34.1572,297.931
36.094,299.131
38.0307,300.461
40.1435,301.86
42.0803,303.254
44.017,304.764
46.12986,306.321
48.06661,307.847
50.00336,309.477
52.1162,311.137
54.0529,312.82
56.1657,314.522
58.1025,316.164
60.0392,317.891
62.1521,319.622
64.0888,321.2797
66.0256,323.008
68.1384,324.728
70.0751,326.371
72.0119,328.086
74.1247,329.8
76.0614,331.437
78.1743,333.217
80.111,334.845
82.0478,336.542
84.1606,338.231
86.0973,339.841
88.0341,341.515
90.1469,343.181
92.0837,344.766
94.0204,346.412
96.13322,348.048
98.06997,349.603
100.007,351.217
102.12,352.818
104.056,354.407
106.169,355.982
108.106,357.476
110.043,359.023
112.155,360.556
114.092,362.007
116.029,363.509
118.142,364.994
120.078,366.398
122.015,367.848
124.128,369.278
126.065,370.627
128.002,372.016
130.114,373.381
132.051,374.721
134.164,376.04
136.101,377.287
138.037,378.578
140.15,379.857
142.087,381.071
144.024,382.332
146.137,383.586
148.073,384.782
150.01,386.026
152.1229,387.267
154.06,388.452
156.172,389.742
158.109,390.924
160.046,392.161
162.159,393.398
164.096,394.584
166.032,395.825
168.1451,397.07
170.082,398.266
172.0186,399.521
174.131,400.781
176.068,401.994
178.005,403.27
180.118,404.554
182.054,405.848
184.1673,407.154
186.104,408.414
188.0408,409.743
190.154,411.089
192.09,412.39
194.027,413.766
196.14,415.1617
198.077,416.516
200.013,417.953
202.126,419.414
204.063,420.837
206.176,422.421
208.113,423.905
210.049,425.485
212.162,427.0902
214.099,428.649
216.036,430.304
218.148,431.986
220.085,433.621
222.022,435.36
224.135,437.13
226.072,438.853
228.008,440.688
230.1211,442.56
232.058,444.386
234.171,446.421
236.107,448.328
238.044,450.366
240.157,452.454
242.094,454.5
244.03,456.694
246.1433,458.9489
248.08,461.168
250.0168,463.558
252.13,466.027
254.066,468.471
256.003,471.123
258.116,473.89
260.053,476.788
262.1655,479.818
264.102,482.841
266.039,486.136
268.152,489.58
270.089,493.019
272.025,496.776
274.138,500.7091
276.075,504.646
278.012,508.956
280.124,513.478
282.061,518.014
284.174,523.225
286.111,528.254
288.048,533.794
290.16,539.648
292.097,545.6
294.034,552.272
296.147,559.557
298.083,567.414
300.02,577.012
302.133,585.024
304.07,591.178
306.006,596.7
308.1193,601.427
310.056,605.575
312.169,609.27
314.106,612.454
316.042,615.4837
318.155,618.251
320.092,620.688
322.029,623.069
324.1415,625.306
326.078,627.327
328.015,629.366
330.128,631.32
332.065,633.146
334.001,635.015
336.114,636.858
338.051,638.683
340.1637,640.504
342.1,642.245
344.0372,644.077
346.15,645.914
348.087,647.692
350.024,649.581
352.136,651.488
354.073,653.35
356.01,655.343
358.123,657.374
360.0594,659.385
362.172,661.63
364.109,663.762
366.046,666.11
368.159,668.536
370.095,670.96
372.032,673.691
374.145,676.629
376.082,679.612
378.018,682.998
380.131,686.965
382.068,691.207
384.005,696.477
386.117,703.041
388.054,711.776
390.167,725.614
392.104,751.859
394.041,808.492
396.153,838.075
398.09,851.971
400.027,860.717
402.1397,866.642
404.076,870.916
406.0132,874.531
408.126,877.554
410.063,880.059
412.176,882.469
414.112,884.452
416.049,886.333
418.1619,888.048
420.099,889.568
422.0354,891.0439
424.148,892.415
426.085,893.6335
428.022,894.826
430.135,895.935
432.071,896.9361
434.008,897.926
436.121,898.844
438.0576,899.672
440.17,900.535
442.107,901.263
444.044,902.004
446.157,902.695
448.093,903.31
450.03,903.939
452.143,904.533
454.08,905.068
456.017,905.603
458.129,906.099
460.066,906.563
462.003,907.023
464.116,907.464
466.052,907.883
468.165,908.283
470.102,908.65
472.039,909.016
474.152,909.367
476.088,909.689
478.025,910.011
480.1379,910.321
482.075,910.605
484.0114,910.892
486.124,911.166
488.061,911.419
490.174,911.686
492.111,911.921
494.047,912.158
496.1601,912.387
498.097,912.599
500.0,912.809