File: PMMA/Validation_Results/BUW-FZJ/BUW-FZJ_A_Gasification_q50_Temp_R3.csv
Time,T_back_1
[s],[K]
0.0,291.2
2.1128,291.2
4.0496,291.2
6.1624,291.2
8.0991,291.2
10.0359,291.2
12.1487,291.2
14.0855,291.2
16.0222,291.2001
18.135,291.2007
20.0718,291.2022
22.0085,291.206
24.1213,291.2142
26.0581,291.2285
28.1709,291.2548
30.1077,291.2925
32.0444,291.3498
34.1572,291.4302
36.094,291.5325
38.0307,291.6704
40.1435,291.8442
42.0803,292.0475
44.017,292.3018
46.1299,292.6026
48.0666,292.9357
50.0034,293.3336
52.1162,293.7844
54.0529,294.2888
56.1657,294.8486
58.1025,295.4359
60.0392,296.1042
62.1521,296.8288
64.0888,297.5736
66.0256,298.4057
68.1384,299.2924
70.0751,300.1902
72.0119,301.1795
74.1247,302.2202
76.0614,303.2618
78.1743,304.4486
80.111,305.5811
82.0478,306.8094
84.1606,308.0819
86.0973,309.3387
88.0341,310.6925
90.1469,312.0863
92.0837,313.4551
94.0204,314.9221
96.1332,316.4249
98.07,317.8945
100.0067,319.4633
102.1195,321.0643
104.0563,322.6962
106.1691,324.3584
108.1059,325.9758
110.0426,327.6941
112.1554,329.44
114.0922,331.1348
116.0289,332.9318
118.1417,334.7541
120.0785,336.5202
122.0152,338.3897
124.1281,340.2827
126.0648,342.1148
128.0016,344.0519
130.1144,346.0111
132.0511,347.9917
134.1639,349.9937
136.1007,351.928
138.0374,353.9703
140.1503,356.0329
142.087,358.0245
144.0238,360.126
146.1366,362.2471
148.0733,364.294
150.0101,366.4527
152.1229,368.6308
154.0596,370.7317
156.1725,373.0432
158.1092,375.1799
160.046,377.4319
162.1588,379.7025
164.0955,381.8916
166.0323,384.198
168.1451,386.5229
170.0818,388.764
172.0186,391.1241
174.1314,393.5026
176.0682,395.7947
178.0049,398.2086
180.1177,400.641
182.0545,403.0914
184.1673,405.5599
186.104,407.9381
188.0408,410.442
190.1536,412.9641
192.0904,415.3935
194.0271,417.9511
196.1399,420.5274
198.0767,423.0086
200.0134,425.6205
202.1263,428.2508
204.063,430.7842
206.1758,433.5673
208.1126,436.1357
210.0493,438.8391
212.1621,441.5615
214.0989,444.1833
216.0356,446.9425
218.1485,449.7209
220.0852,452.3964
222.022,455.2121
224.1348,458.0476
226.0715,460.7781
228.0083,463.6524
230.1211,466.5468
232.0578,469.3346
234.1707,472.3971
236.1074,475.2245
238.0442,478.2017
240.157,481.2008
242.0937,484.0902
244.0305,487.1337
246.1433,490.2003
248.08,493.1555
250.0168,496.2688
252.1296,499.4075
254.0664,502.4335
256.0031,505.6228
258.1159,508.8397
260.0527,512.0842
262.1655,515.3566
264.1023,518.5129
266.039,521.8413
268.1518,525.1992
270.0886,528.4382
272.0253,531.8527
274.1381,535.296
276.0749,538.614
278.0116,542.1061
280.1245,545.6225
282.0612,549.0043
284.174,552.7139
286.1108,556.1328
288.0475,559.722
290.1603,563.3182
292.0971,566.7641
294.0338,570.3718
296.1467,573.9813
298.0834,577.4343
300.0202,581.0406
302.133,584.6405
304.0697,588.0747
306.0065,591.6474
308.1193,595.2035
310.056,598.7439
312.1689,602.2705
314.1056,605.6313
316.0424,609.1354
318.1552,612.6333
320.0919,615.9778
322.0287,619.4802
324.1415,622.9976
326.0783,626.3854
328.015,629.9633
330.1278,633.5942
332.0646,637.1329
334.0013,640.9188
336.1141,644.8151
338.0509,648.8416
340.1637,653.023
342.1005,657.2034
344.0372,661.8129
346.15,666.7019
348.0868,671.7432
350.0235,677.3953
352.1363,683.7578
354.0731,690.5793
356.0098,698.8336
358.1226,709.3829
360.0594,722.353
362.1722,746.414
364.109,784.3645
366.0457,799.7654
368.1585,808.3463
370.0953,814.9769
372.032,820.5332
374.1449,825.0945
376.0816,828.8089
378.0184,832.1826
380.1312,835.1624
382.0679,837.7126
384.0047,840.1196
386.1175,842.3038
388.0542,844.3108
390.1671,846.1599
392.1038,847.8029
394.0406,849.4117
396.1534,850.9211
398.0901,852.2756
400.0269,853.6117
402.1397,854.8723
404.0764,856.0158
406.0132,857.1506
408.126,858.2295
410.0628,859.2142
412.1756,860.238
414.1123,861.1359
416.0491,862.0353
418.1619,862.8987
420.0986,863.6915
422.0354,864.4906
424.1482,865.2573
426.085,865.9644
428.0217,866.6788
430.1345,867.3684
432.0713,868.0052
434.008,868.6507
436.1208,869.2774
438.0576,869.8603
440.1704,870.4786
442.1072,871.0298
444.0439,871.5875
446.1567,872.1296
448.0935,872.6366
450.0302,873.1484
452.1431,873.6472
454.0798,874.1128
456.0166,874.5853
458.1294,875.0459
460.0661,875.4758
462.0029,875.914
464.1157,876.3406
466.0524,876.7588
468.1653,877.1637
470.102,877.545
472.0388,877.9328
474.1516,878.3132
476.0883,878.6671
478.0251,879.0323
480.1379,879.3871
482.0746,879.7201
484.0114,880.063
486.1242,880.3953
488.061,880.7095
490.1738,881.0464
492.1105,881.345
494.0473,881.6569
496.1601,881.9573
498.0968,882.2429
500.0,882.5325