File: PMMA/Validation_Results/BUW-FZJ/BUW-FZJ_PMMA01_Gasification_q50_Temp_R1.csv
Time,T_back_1
[s],[K]
0.0,290.65
2.112818,290.65
4.04957,290.65
6.16239,290.65
8.09914,290.659
10.0359,290.708
12.1487,290.857
14.0855,291.147
16.0222,291.642
18.135,292.355
20.0718,293.238
22.0085,294.359
24.1213,295.667
26.0581,297.069
28.1709,298.747
30.1077,300.401
32.0444,302.229
34.1572,304.145
36.094,306.045
38.0307,308.088
40.1435,310.18
42.0803,312.216
44.017,314.372
46.12986,316.548
48.06661,318.64
50.00336,320.829
52.1162,323.011
54.0529,325.18
56.1657,327.344
58.1025,329.409
60.0392,331.563
62.1521,333.71
64.0888,335.755
66.0256,337.882
68.1384,339.997
70.0751,342.007
72.0119,344.093
74.1247,346.163
76.0614,348.126
78.1743,350.247
80.111,352.172
82.0478,354.165
84.1606,356.133
86.0973,357.995
88.0341,359.917
90.1469,361.814
92.0837,363.602
94.0204,365.445
96.13322,367.256
98.06997,368.96
100.007,370.708
102.12,372.42
104.056,374.091
106.169,375.726
108.106,377.262
110.043,378.846
112.155,380.41
114.092,381.889
116.029,383.4237
118.142,384.946
120.078,386.393
122.015,387.897
124.128,389.396
126.065,390.825
128.002,392.316
130.114,393.805
132.051,395.294
134.164,396.783
136.101,398.211
138.037,399.706
140.15,401.207
142.087,402.649
144.024,404.163
146.137,405.688
148.073,407.157
150.01,408.704
152.1229,410.266
154.06,411.774
156.172,413.437
158.109,414.983
160.046,416.621
162.159,418.283
164.096,419.9
166.032,421.621
168.1451,423.381
170.082,425.097
172.0186,426.918
174.131,428.767
176.068,430.561
178.005,432.465
180.118,434.401
182.054,436.369
184.1673,438.371
186.104,440.32
188.0408,442.397
190.154,444.514
192.09,446.581
194.027,448.787
196.14,451.045
198.077,453.255
200.013,455.625
202.126,458.058
204.063,460.45
206.176,463.14
208.113,465.688
210.049,468.444
212.162,471.311
214.099,474.171
216.036,477.303
218.148,480.581
220.085,483.855
222.022,487.428
224.135,491.167
226.072,494.906
228.008,498.998
230.1211,503.292
232.058,507.598
234.171,512.534
236.107,517.292
238.044,522.521
240.157,528.033
242.094,533.591
244.03,539.755
246.1433,546.343
248.08,553.108
250.0168,560.871
252.13,569.846
254.066,579.383
256.003,587.169
258.116,593.488
260.053,598.863
262.1655,603.521
264.102,607.434
266.039,611.087
268.152,614.366
270.089,617.211
272.025,619.94
274.138,622.455
276.075,624.699
278.012,626.916
280.124,629.021
282.061,630.9502
284.174,633
286.111,634.823
288.048,636.704
290.16,638.56
292.097,640.328
294.034,642.174
296.147,644.027
298.083,645.806
300.02,647.682
302.133,649.586
304.07,651.432
306.006,653.397
308.1193,655.399
310.056,657.458
312.169,659.567
314.106,661.637
316.042,663.898
318.155,666.239
320.092,668.564
322.029,671.153
324.1415,673.91
326.078,676.69
328.015,679.814
330.128,683.373
332.065,687.102
334.001,691.559
336.114,696.751
338.051,703.294
340.1637,712.365
342.1,725.945
344.0372,756.408
346.15,815.085
348.087,840.958
350.024,854.176
352.136,862.085
354.073,867.377
356.01,871.631
358.123,875.077
360.0594,877.873
362.172,880.521
364.109,882.672
366.046,884.7
368.159,886.539
370.095,888.155
372.032,889.721
374.145,891.175
376.082,892.467
378.018,893.728
380.131,894.905
382.068,895.951
384.005,896.988
386.117,897.966
388.054,898.8738
390.167,899.733
392.104,900.514
394.041,901.274
396.153,902.001
398.09,902.661
400.027,903.299
402.1397,903.915
404.076,904.488
406.0132,905.045
408.126,905.576
410.063,906.047
412.176,906.549
414.112,906.987
416.049,907.425
418.1619,907.8419
420.099,908.223
422.0354,908.6052
424.148,908.97
426.085,909.3043
428.022,909.64
430.135,909.961
432.071,910.257
434.008,910.553
436.121,910.838
438.0576,911.101
440.17,911.3758
442.107,911.62
444.044,911.865
446.157,912.101
448.093,912.32
450.03,912.5413
452.143,912.754
454.08,912.9589
456.017,913.174
458.129,913.368
460.066,913.547
462.003,913.731
464.116,913.885
466.052,914.0561
468.165,914.222
470.102,914.399
472.039,914.556
474.152,914.708
476.088,914.847
478.025,914.975
480.1379,915.116
482.075,915.26
484.0114,915.405
486.124,915.537
488.061,915.66
490.174,915.7687
492.111,915.887
494.047,916.022
496.1601,916.148
498.097,916.259
500.0,916.361