File: PMMA/Validation_Results/BUW-FZJ/BUW-FZJ_ApproachA_Gasification_q50_MLR_R5.csv
Time,MLR
[s],[g/m2/s]
0.0,0.0
2.112818,0.00041815
4.04957,0.00481947
6.16239,0.0215486
8.09914,0.0586504
10.0359,0.128752
12.1487,0.23609
14.0855,0.370212
16.0222,0.531919
18.135,0.700435
20.0718,0.859381
22.0085,1.02916
24.1213,1.22703
26.0581,1.47602
28.1709,1.85362
30.1077,2.32339
32.0444,2.951984
34.1572,3.71493
36.094,4.54579
38.0307,5.4842
40.1435,6.45307
42.0803,7.37277
44.017,8.29881
46.12986,9.16911
48.06661,9.94075
50.00336,10.681
52.1162,11.3542
54.0529,11.9653
56.1657,12.5188
58.1025,13.0001
60.0392,13.4583
62.1521,13.8748
64.0888,14.2389
66.0256,14.5874
68.1384,14.9061
70.0751,15.1863
72.0119,15.4558
74.1247,15.7036
76.0614,15.9222
78.1743,16.142
80.111,16.328
82.0478,16.5078
84.1606,16.67388
86.0973,16.8211
88.0341,16.9638
90.1469,17.0956
92.0837,17.2127
94.0204,17.3263
96.13322,17.4317
98.06997,17.5253
100.007,17.6162
102.12,17.7006
104.056,17.7789
106.169,17.8517
108.106,17.9253
110.043,17.9923
112.155,18.0558
114.092,18.1122
116.029,18.1718
118.142,18.2266
120.078,18.2765
122.015,18.3276
124.128,18.37756
126.065,18.4224
128.002,18.4675
130.114,18.5107
132.051,18.553
134.164,18.5948
136.101,18.632
138.037,18.6751
140.15,18.7147
142.087,18.7536
144.024,18.7926
146.137,18.8297
148.073,18.8687
150.01,18.9076
152.1229,18.9465
154.06,18.9855
156.172,19.0279
158.109,19.0668
160.046,19.109
162.159,19.1503
164.096,19.191
166.032,19.23936
168.1451,19.28078
170.082,19.3233
172.0186,19.369
174.131,19.4145
176.068,19.4591
178.005,19.5111
180.118,19.5622
182.054,19.6131
184.1673,19.66629
186.104,19.7178
188.0408,19.777
190.154,19.8348
192.09,19.891
194.027,19.9543
196.14,20.0165
198.077,20.0795
200.013,20.1464
202.126,20.2166
204.063,20.28826
206.176,20.3609
208.113,20.43112
210.049,20.5057
212.162,20.5831
214.099,20.6596
216.036,20.7451
218.148,20.8295
220.085,20.9154
222.022,21.0032
224.135,21.0975
226.072,21.1867
228.008,21.2876
230.1211,21.3963
232.058,21.4872
234.171,21.5924
236.107,21.6932
238.044,21.7986
240.157,21.9073
242.094,22.0185
244.03,22.1331
246.1433,22.2519
248.08,22.3661
250.0168,22.5061
252.13,22.6244
254.066,22.7408
256.003,22.8673
258.116,22.998
260.053,23.13784
262.1655,23.2762
264.102,23.4168
266.039,23.57497
268.152,23.7167
270.089,23.8501
272.025,24.00101
274.138,24.1604
276.075,24.3179
278.012,24.4885
280.124,24.6701
282.061,24.8503
284.174,25.0564
286.111,25.2554
288.048,25.4751
290.16,25.708
292.097,25.9373
294.034,26.192
296.147,26.4634
298.083,26.7443
300.02,27.0698
302.133,27.3832
304.07,27.6894
306.006,28.0588
308.1193,28.4032
310.056,28.7884
312.169,29.1441
314.106,29.5251
316.042,29.9163
318.155,30.2833
320.092,30.64002
322.029,31.0244
324.1415,31.3892
326.078,31.721
328.015,32.0595
330.128,32.37777
332.065,32.6586
334.001,32.9444
336.114,33.207
338.051,33.4471
340.1637,33.6436
342.1,33.79227
344.0372,33.9069
346.15,34.0067
348.087,34.0703
350.024,33.9896
352.136,33.856
354.073,33.775
356.01,33.38369
358.123,32.7081
360.0594,32.0511
362.172,31.3498
364.109,29.8952
366.046,27.3807
368.159,19.8432
370.095,3.53952
372.032,0.000772157
374.145,5.2666e-11
376.082,0.0
378.018,0.0
380.131,0.0
382.068,0.0
384.005,0.0
386.117,0.0
388.054,0.0
390.167,0.0
392.104,0.0
394.041,0.0
396.153,0.0
398.09,0.0
400.027,0.0
402.1397,0.0
404.076,0.0
406.0132,0.0
408.126,0.0
410.063,0.0
412.176,0.0
414.112,0.0
416.049,0.0
418.1619,0.0
420.099,0.0
422.0354,0.0
424.148,0.0
426.085,0.0
428.022,0.0
430.135,0.0
432.071,0.0
434.008,0.0
436.121,0.0
438.0576,0.0
440.17,0.0
442.107,0.0
444.044,0.0
446.157,0.0
448.093,0.0
450.03,0.0
452.143,0.0
454.08,0.0
456.017,0.0
458.129,0.0
460.066,0.0
462.003,0.0
464.116,0.0
466.052,0.0
468.165,0.0
470.102,0.0
472.039,0.0
474.152,0.0
476.088,0.0
478.025,0.0
480.1379,0.0
482.075,0.0
484.0114,0.0
486.124,0.0
488.061,0.0
490.174,0.0
492.111,0.0
494.047,0.0
496.1601,0.0
498.097,0.0
500.0,0.0