File: PMMA/Validation_Results/BUW-FZJ/BUW-FZJ_ApproachB_Gasification_q50_Temp_R5.csv
Time,T_back_1
[s],[K]
0.0,291.67
2.112818,291.67
4.04957,291.67
6.16239,291.67
8.09914,291.67
10.0359,291.67
12.1487,291.67
14.0855,291.67
16.0222,291.671
18.135,291.674
20.0718,291.68
22.0085,291.695
24.1213,291.723
26.0581,291.767
28.1709,291.842
30.1077,291.942
32.0444,292.086
34.1572,292.276
36.094,292.507
38.0307,292.806
40.1435,293.168
42.0803,293.577
44.017,294.074
46.12986,294.644
48.06661,295.259
50.00336,295.976
52.1162,296.77
54.0529,297.639
56.1657,298.585
58.1025,299.558
60.0392,300.646
62.1521,301.806
64.0888,302.978
66.0256,304.269
68.1384,305.623
70.0751,306.975
72.0119,308.446
74.1247,309.972
76.0614,311.481
78.1743,313.179
80.111,314.781
82.0478,316.499
84.1606,318.26
86.0973,319.982
88.0341,321.819
90.1469,323.692
92.0837,325.514
94.0204,327.45
96.13322,329.417
98.06997,331.324
100.007,333.344
102.12,335.389
104.056,337.458
106.169,339.549
108.106,341.569
110.043,343.701
112.155,345.852
114.092,347.927
116.029,350.113
118.142,352.315
120.078,354.437
122.015,356.669
124.128,358.916
126.065,361.079
128.002,363.352
130.114,365.64
132.051,367.939
134.164,370.251
136.101,372.473
138.037,374.807
140.15,377.152
142.087,379.405
144.024,381.7702
146.137,384.146
148.073,386.428
150.01,388.823
152.1229,391.228
154.06,393.538
156.172,396.067
158.109,398.394
160.046,400.837
162.159,403.288
164.096,405.642
166.032,408.111
168.1451,410.589
170.082,412.968
172.0186,415.464
174.131,417.969
176.068,420.373
178.005,422.896
180.118,425.428
182.054,427.969
184.1673,430.519
186.104,432.967
188.0408,435.536
190.154,438.1131
192.09,440.587
194.027,443.1819
196.14,445.786
198.077,448.2861
200.013,450.909
202.126,453.541
204.063,456.068
206.176,458.834
208.113,461.378
210.049,464.048
212.162,466.727
214.099,469.297
216.036,471.994
218.148,474.7
220.085,477.2975
222.022,480.022
224.135,482.756
226.072,485.38
228.008,488.132
230.1211,490.893
232.058,493.542
234.171,496.4402
236.107,499.105
238.044,501.899
240.157,504.701
242.094,507.389
244.03,510.207
246.1433,513.0314
248.08,515.739
250.0168,518.576
252.13,521.419
254.066,524.142
256.003,526.993
258.116,529.848
260.053,532.706
262.1655,535.566
264.102,538.301
266.039,541.158
268.152,544.0127
270.089,546.738
272.025,549.582
274.138,552.418
276.075,555.123
278.012,557.941
280.124,560.742
282.061,563.406
284.174,566.296
286.111,568.926
288.048,571.654
290.16,574.359
292.097,576.922
294.034,579.574
296.147,582.195
298.083,584.669
300.02,587.221
302.133,589.738
304.07,592.113
306.006,594.563
308.1193,596.981
310.056,599.368
312.169,601.729
314.106,603.964
316.042,606.284
318.155,608.591
320.092,610.793
322.029,613.095
324.1415,615.407
326.078,617.635
328.015,619.991
330.128,622.385
332.065,624.72
334.001,627.22
336.114,629.792
338.051,632.448
340.1637,635.204
342.1,637.951
344.0372,640.957
346.15,644.125
348.087,647.332
350.024,650.9024
352.136,654.74
354.073,658.706
356.01,663.234
358.123,668.262
360.0594,673.658
362.172,680.447
364.109,687.868
366.046,697.504
368.159,710.82
370.095,731.722
372.032,778.003
374.145,824.098
376.082,849.578
378.018,866.243
380.131,877.139
382.068,884.426
384.005,889.998
386.117,894.197
388.054,897.501
390.167,900.178
392.104,902.322
394.041,904.2395
396.153,905.906
398.09,907.323
400.027,908.653
402.1397,909.849
404.076,910.889
406.0132,911.885
408.126,912.8
410.063,913.61
412.176,914.43
414.112,915.131
416.049,915.817
418.1619,916.461
420.099,917.043
422.0354,917.618
424.148,918.1616
426.085,918.6554
428.022,919.147
430.135,919.616
432.071,920.043
434.008,920.471
436.121,920.881
438.0576,921.257
440.17,921.6503
442.107,921.996
444.044,922.346
446.157,922.681
448.093,922.991
450.03,923.305
452.143,923.6071
454.08,923.887
456.017,924.17
458.129,924.4444
460.066,924.698
462.003,924.957
464.116,925.207
466.052,925.45
468.165,925.687
470.102,925.909
472.039,926.135
474.152,926.357
476.088,926.564
478.025,926.774
480.1379,926.98
482.075,927.172
484.0114,927.368
486.124,927.558
488.061,927.736
490.174,927.927
492.111,928.095
494.047,928.2694
496.1601,928.439
498.097,928.597
500.0,928.757