File: PMMA/Validation_Results/BUW-FZJ/BUW-FZJ-B_Gasification_q50_MLR_R5.csv
Time,MLR
[s],[g/m2/s]
0.0,0.0
2.1128,0.0
4.0496,0.0
6.1624,0.0
8.0991,0.0
10.0359,0.0003
12.1487,0.0018
14.0855,0.0067
16.0222,0.0217
18.135,0.0592
20.0718,0.1358
22.0085,0.2893
24.1213,0.5599
26.0581,0.967
28.1709,1.608
30.1077,2.3761
32.0444,3.3267
34.1572,4.3647
36.094,5.3737
38.0307,6.3921
40.1435,7.339
42.0803,8.1654
44.017,8.945
46.1299,9.6429
48.0666,10.2425
50.0034,10.8066
52.1162,11.3142
54.0529,11.7733
56.1657,12.1897
58.1025,12.5533
60.0392,12.9016
62.1521,13.2208
64.0888,13.5021
66.0256,13.774
68.1384,14.0252
70.0751,14.2482
72.0119,14.4652
74.1247,14.6671
76.0614,14.8474
78.1743,15.0312
80.111,15.1889
82.0478,15.3438
84.1606,15.4892
86.0973,15.6205
88.0341,15.7501
90.1469,15.8727
92.0837,15.9841
94.0204,16.0948
96.1332,16.2004
98.07,16.2971
100.0067,16.3941
102.1195,16.4874
104.0563,16.5775
106.1691,16.6648
108.1059,16.7461
110.0426,16.8292
112.1554,16.9105
114.0922,16.9871
116.0289,17.0662
118.1417,17.1444
120.0785,17.2188
122.0152,17.2962
124.1281,17.3735
126.0648,17.4474
128.0016,17.5248
130.1144,17.6129
132.0511,17.69
134.1639,17.7667
136.1007,17.8435
138.0374,17.9252
140.1503,18.0057
142.087,18.0818
144.0238,18.1632
146.1366,18.2436
148.0733,18.3215
150.0101,18.4023
152.1229,18.484
154.0596,18.5618
156.1725,18.647
158.1092,18.7263
160.046,18.8105
162.1588,18.8936
164.0955,18.9733
166.0323,19.0579
168.1451,19.1434
170.0818,19.2255
172.0186,19.3121
174.1314,19.4
176.0682,19.4848
178.0049,19.5748
180.1177,19.6664
182.0545,19.7589
184.1673,19.8523
186.104,19.9423
188.0408,20.0373
190.1536,20.1338
192.0904,20.2271
194.0271,20.3246
196.1399,20.4251
198.0767,20.522
200.0134,20.6265
202.1263,20.7334
204.063,20.8356
206.1758,20.9489
208.1126,21.0545
210.0493,21.166
212.1621,21.2779
214.0989,21.3872
216.0356,21.505
218.1485,21.625
220.0852,21.7414
222.022,21.8678
224.1348,21.9948
226.0715,22.1179
228.0083,22.2486
230.1211,22.3828
232.0578,22.5116
234.1707,22.6552
236.1074,22.7902
238.0442,22.9356
240.157,23.086
242.0937,23.2323
244.0305,23.3869
246.1433,23.5451
248.08,23.7
250.0168,23.8656
252.1296,24.034
254.0664,24.1973
256.0031,24.3738
258.1159,24.5585
260.0527,24.7477
262.1655,24.9385
264.1023,25.1271
266.039,25.3278
268.1518,25.5323
270.0886,25.7344
272.0253,25.9487
274.1381,26.1709
276.0749,26.3884
278.0116,26.6211
280.1245,26.8569
282.0612,27.0871
284.174,27.3427
286.1108,27.5814
288.0475,27.8329
290.1603,28.0888
292.0971,28.3348
294.0338,28.5927
296.1467,28.8513
298.0834,29.0979
300.0202,29.3547
302.133,29.6075
304.0697,29.8454
306.0065,30.0886
308.1193,30.324
310.056,30.5521
312.1689,30.7731
314.1056,30.9729
316.0424,31.175
318.1552,31.3663
320.0919,31.5396
322.0287,31.7116
324.1415,31.8728
326.0783,32.0192
328.015,32.163
330.1278,32.2971
332.0646,32.4186
334.0013,32.5371
336.1141,32.6464
338.0509,32.7467
340.1637,32.8344
342.1005,32.9076
344.0372,32.9717
346.15,33.0184
348.0868,33.0399
350.0235,33.0354
352.1363,32.9875
354.0731,32.8837
356.0098,32.7037
358.1226,32.389
360.0594,31.8909
362.1722,30.9789
364.109,29.4161
366.0457,26.1727
368.1585,17.4123
370.0953,0.4465
372.032,0.0
374.1449,0.0
376.0816,0.0
378.0184,0.0
380.1312,0.0
382.0679,0.0
384.0047,0.0
386.1175,0.0
388.0542,0.0
390.1671,0.0
392.1038,0.0
394.0406,0.0
396.1534,0.0
398.0901,0.0
400.0269,0.0
402.1397,0.0
404.0764,0.0
406.0132,0.0
408.126,0.0
410.0628,0.0
412.1756,0.0
414.1123,0.0
416.0491,0.0
418.1619,0.0
420.0986,0.0
422.0354,0.0
424.1482,0.0
426.085,0.0
428.0217,0.0
430.1345,0.0
432.0713,0.0
434.008,0.0
436.1208,0.0
438.0576,0.0
440.1704,0.0
442.1072,0.0
444.0439,0.0
446.1567,0.0
448.0935,0.0
450.0302,0.0
452.1431,0.0
454.0798,0.0
456.0166,0.0
458.1294,0.0
460.0661,0.0
462.0029,0.0
464.1157,0.0
466.0524,0.0
468.1653,0.0
470.102,0.0
472.0388,0.0
474.1516,0.0
476.0883,0.0
478.0251,0.0
480.1379,0.0
482.0746,0.0
484.0114,0.0
486.1242,0.0
488.061,0.0
490.1738,0.0
492.1105,0.0
494.0473,0.0
496.1601,0.0
498.0968,0.0
500.0,0.0