File: PMMA/Validation_Results/BUW-FZJ/BUW-FZJ_ApproachA_Gasification_q50_MLR_R4.csv
Time,MLR
[s],[g/m2/s]
0.0,0.0
2.1128,0.0004
4.0496,0.0048
6.1624,0.0215
8.0991,0.0586
10.0359,0.1287
12.1487,0.2361
14.0855,0.3702
16.0222,0.5319
18.135,0.7004
20.0718,0.8594
22.0085,1.0292
24.1213,1.227
26.0581,1.476
28.1709,1.8536
30.1077,2.3234
32.0444,2.952
34.1572,3.7149
36.094,4.5457
38.0307,5.4841
40.1435,6.453
42.0803,7.3727
44.017,8.2987
46.1299,9.169
48.0666,9.9407
50.0034,10.6809
52.1162,11.3541
54.0529,11.9652
56.1657,12.5188
58.1025,13.0003
60.0392,13.4586
62.1521,13.8753
64.0888,14.2397
66.0256,14.5885
68.1384,14.9077
70.0751,15.1884
72.0119,15.4587
74.1247,15.7073
76.0614,15.927
78.1743,16.1482
80.111,16.3356
82.0478,16.5173
84.1606,16.6856
86.0973,16.8352
88.0341,16.9808
90.1469,17.1159
92.0837,17.2366
94.0204,17.3544
96.1332,17.4644
98.07,17.5629
100.0067,17.6595
102.1195,17.7502
104.0563,17.8449
106.1691,17.9273
108.1059,18.0051
110.0426,18.0805
112.1554,18.1568
114.0922,18.2262
116.0289,18.2972
118.1417,18.3627
120.0785,18.4294
122.0152,18.4922
124.1281,18.556
126.0648,18.6145
128.0016,18.6785
130.1144,18.7392
132.0511,18.8017
134.1639,18.863
136.1007,18.92
138.0374,18.9812
140.1503,19.0443
142.087,19.1025
144.0238,19.1632
146.1366,19.2279
148.0733,19.289
150.0101,19.3542
152.1229,19.4226
154.0596,19.4872
156.1725,19.5565
158.1092,19.6212
160.046,19.691
162.1588,19.7658
164.0955,19.8362
166.0323,19.9099
168.1451,19.9891
170.0818,20.0626
172.0186,20.148
174.1314,20.2286
176.0682,20.3101
178.0049,20.4043
180.1177,20.489
182.0545,20.5785
184.1673,20.67
186.104,20.7634
188.0408,20.8605
190.1536,20.9597
192.0904,21.0584
194.0271,21.1642
196.1399,21.2712
198.0767,21.3765
200.0134,21.4952
202.1263,21.6143
204.063,21.7265
206.1758,21.8493
208.1126,21.9666
210.0493,22.0897
212.1621,22.2133
214.0989,22.3398
216.0356,22.4728
218.1485,22.6123
220.0852,22.7534
222.022,22.8902
224.1348,23.0303
226.0715,23.1664
228.0083,23.3172
230.1211,23.4732
232.0578,23.6167
234.1707,23.7881
236.1074,23.94
238.0442,24.1134
240.157,24.2779
242.0937,24.4555
244.0305,24.657
246.1433,24.8385
248.08,25.0278
250.0168,25.2342
252.1296,25.4547
254.0664,25.6769
256.0031,25.9195
258.1159,26.1695
260.0527,26.442
262.1655,26.7214
264.1023,26.9974
266.039,27.3305
268.1518,27.6593
270.0886,27.985
272.0253,28.3569
274.1381,28.7211
276.0749,29.111
278.0116,29.5147
280.1245,29.9152
282.0612,30.3175
284.174,30.7521
286.1108,31.1565
288.0475,31.5655
290.1603,31.9623
292.0971,32.3338
294.0338,32.7134
296.1467,33.0813
298.0834,33.4058
300.0202,33.7226
302.133,34.0157
304.0697,34.2485
306.0065,34.492
308.1193,34.6716
310.056,34.7767
312.1689,34.8942
314.1056,34.9539
316.0424,34.9391
318.1552,34.7601
320.0919,34.5987
322.0287,34.0013
324.1415,33.6319
326.0783,32.6715
328.015,31.276
330.1278,29.4101
332.0646,25.1246
334.0013,11.4021
336.1141,0.0273
338.0509,0.0
340.1637,0.0
342.1005,0.0
344.0372,0.0
346.15,0.0
348.0868,0.0
350.0235,0.0
352.1363,0.0
354.0731,0.0
356.0098,0.0
358.1226,0.0
360.0594,0.0
362.1722,0.0
364.109,0.0
366.0457,0.0
368.1585,0.0
370.0953,0.0
372.032,0.0
374.1449,0.0
376.0816,0.0
378.0184,0.0
380.1312,0.0
382.0679,0.0
384.0047,0.0
386.1175,0.0
388.0542,0.0
390.1671,0.0
392.1038,0.0
394.0406,0.0
396.1534,0.0
398.0901,0.0
400.0269,0.0
402.1397,0.0
404.0764,0.0
406.0132,0.0
408.126,0.0
410.0628,0.0
412.1756,0.0
414.1123,0.0
416.0491,0.0
418.1619,0.0
420.0986,0.0
422.0354,0.0
424.1482,0.0
426.085,0.0
428.0217,0.0
430.1345,0.0
432.0713,0.0
434.008,0.0
436.1208,0.0
438.0576,0.0
440.1704,0.0
442.1072,0.0
444.0439,0.0
446.1567,0.0
448.0935,0.0
450.0302,0.0
452.1431,0.0
454.0798,0.0
456.0166,0.0
458.1294,0.0
460.0661,0.0
462.0029,0.0
464.1157,0.0
466.0524,0.0
468.1653,0.0
470.102,0.0
472.0388,0.0
474.1516,0.0
476.0883,0.0
478.0251,0.0
480.1379,0.0
482.0746,0.0
484.0114,0.0
486.1242,0.0
488.061,0.0
490.1738,0.0
492.1105,0.0
494.0473,0.0
496.1601,0.0
498.0968,0.0
500.0,0.0