File: PMMA/Validation_Results/BUW-FZJ/BUW-FZJ_ApproachA_Gasification_q50_Temp_R4.csv
Time,T_back_1
[s],[K]
0.0,291.7
2.1128,291.7
4.0496,291.7
6.1624,291.7
8.0991,291.7
10.0359,291.7
12.1487,291.7
14.0855,291.7
16.0222,291.7001
18.135,291.7007
20.0718,291.7023
22.0085,291.7064
24.1213,291.715
26.0581,291.73
28.1709,291.7575
30.1077,291.7968
32.0444,291.8564
34.1572,291.9397
36.094,292.0456
38.0307,292.188
40.1435,292.3672
42.0803,292.5764
44.017,292.8378
46.1299,293.1466
48.0666,293.4881
50.0034,293.8955
52.1162,294.3568
54.0529,294.8724
56.1657,295.444
58.1025,296.0433
60.0392,296.7248
62.1521,297.463
64.0888,298.2213
66.0256,299.068
68.1384,299.9697
70.0751,300.8821
72.0119,301.8871
74.1247,302.9437
76.0614,304.0008
78.1743,305.2045
80.111,306.3528
82.0478,307.5976
84.1606,308.8868
86.0973,310.1595
88.0341,311.5301
90.1469,312.9406
92.0837,314.3254
94.0204,315.8091
96.1332,317.3287
98.07,318.8143
100.0067,320.3997
102.1195,322.0174
104.0563,323.6659
106.1691,325.3446
108.1059,326.9778
110.0426,328.7126
112.1554,330.4748
114.0922,332.1852
116.0289,333.9984
118.1417,335.8372
120.0785,337.6186
122.0152,339.5042
124.1281,341.4133
126.0648,343.2607
128.0016,345.2138
130.1144,347.1891
132.0511,349.1856
134.1639,351.2035
136.1007,353.1531
138.0374,355.2114
140.1503,357.29
142.087,359.2968
144.0238,361.4141
146.1366,363.5511
148.0733,365.6132
150.0101,367.7878
152.1229,369.9816
154.0596,372.0978
156.1725,374.426
158.1092,376.578
160.046,378.8461
162.1588,381.1326
164.0955,383.3371
166.0323,385.6595
168.1451,388.0004
170.0818,390.2566
172.0186,392.6329
174.1314,395.0279
176.0682,397.3355
178.0049,399.7659
180.1177,402.2146
182.0545,404.6813
184.1673,407.1661
186.104,409.56
188.0408,412.0806
190.1536,414.6192
192.0904,417.0647
194.0271,419.6392
196.1399,422.232
198.0767,424.7292
200.0134,427.3581
202.1263,430.0054
204.063,432.555
206.1758,435.3558
208.1126,437.9411
210.0493,440.6619
212.1621,443.4018
214.0989,446.0402
216.0356,448.8171
218.1485,451.6131
220.0852,454.3056
222.022,457.1397
224.1348,459.9935
226.0715,462.7418
228.0083,465.6346
230.1211,468.5477
232.0578,471.3536
234.1707,474.4367
236.1074,477.2829
238.0442,480.2801
240.157,483.3004
242.0937,486.209
244.0305,489.273
246.1433,492.3611
248.08,495.3377
250.0168,498.4738
252.1296,501.6359
254.0664,504.6847
256.0031,507.8984
258.1159,511.1396
260.0527,514.41
262.1655,517.7074
264.1023,520.8888
266.039,524.2432
268.1518,527.6272
270.0886,530.8918
272.0253,534.3328
274.1381,537.8012
276.0749,541.1414
278.0116,544.657
280.1245,548.1939
282.0612,551.5951
284.174,555.3256
286.1108,558.7622
288.0475,562.363
290.1603,565.9706
292.0971,569.4274
294.0338,573.0437
296.1467,576.6599
298.0834,580.1169
300.0202,583.7253
302.133,587.3258
304.0697,590.7536
306.0065,594.3208
308.1193,597.8721
310.056,601.409
312.1689,604.9322
314.1056,608.2918
316.0424,611.7974
318.1552,615.3014
320.0919,618.6569
322.0287,622.1763
324.1415,625.718
326.0783,629.1385
328.015,632.7626
330.1278,636.4506
332.0646,640.0541
334.0013,643.9257
336.1141,647.9316
338.0509,652.0887
340.1637,656.4332
342.1005,660.8158
344.0372,665.604
346.15,670.8105
348.0868,676.1898
350.0235,682.3834
352.1363,689.2339
354.0731,696.8782
356.0098,706.7551
358.1226,719.4194
360.0594,738.8779
362.1722,774.8925
364.109,798.0416
366.0457,806.6141
368.1585,813.8915
370.0953,819.4314
372.032,824.1918
374.1449,828.1956
376.0816,831.5077
378.0184,834.5709
380.1312,837.2954
382.0679,839.645
384.0047,841.878
386.1175,843.918
388.0542,845.7994
390.1671,847.5445
392.1038,849.1024
394.0406,850.6342
396.1534,852.0695
398.0901,853.363
400.0269,854.6397
402.1397,855.8474
404.0764,856.9448
406.0132,858.0353
408.126,859.0738
410.0628,860.0241
412.1756,861.0128
414.1123,861.8802
416.0491,862.7518
418.1619,863.5874
420.0986,864.3556
422.0354,865.1303
424.1482,865.8742
426.085,866.5635
428.0217,867.2582
430.1345,867.9288
432.0713,868.5514
434.008,869.1812
436.1208,869.7942
438.0576,870.3653
440.1704,870.9701
442.1072,871.5071
444.0439,872.0532
446.1567,872.5858
448.0935,873.0777
450.0302,873.5806
452.1431,874.069
454.0798,874.5234
456.0166,874.9867
458.1294,875.4394
460.0661,875.8607
462.0029,876.2898
464.1157,876.7093
466.0524,877.1173
468.1653,877.518
470.102,877.8901
472.0388,878.2728
474.1516,878.6441
476.0883,878.9952
478.0251,879.3514
480.1379,879.7013
482.0746,880.0308
484.0114,880.3651
486.1242,880.6946
488.061,881.0052
490.1738,881.3323
492.1105,881.6316
494.0473,881.9336
496.1601,882.233
498.0968,882.5144
500.0,882.7986