File: PMMA/Validation_Results/BUW-FZJ/BUW-FZJ_ApproachA_Gasification_q50_Mass_R4.csv
Time,Mass
[s],[g]
0.0,25.3526
2.112818,25.3526
4.04957,25.3526
6.16239,25.3525
8.09914,25.3522
10.0359,25.3515
12.1487,25.35
14.0855,25.3477
16.0222,25.3442
18.135,25.3393
20.0718,25.3335
22.0085,25.3261
24.1213,25.3173
26.0581,25.3072
28.1709,25.2936
30.1077,25.278
32.0444,25.2573
34.1572,25.2312
36.094,25.2002
38.0307,25.1609
40.1435,25.1141
42.0803,25.0623
44.017,25.001
46.12986,24.9327
48.06661,24.8612
50.00336,24.7807
52.1162,24.6947
54.0529,24.6037
56.1657,24.5082
58.1025,24.413
60.0392,24.3099
62.1521,24.2033
64.0888,24.0985
66.0256,23.9862
68.1384,23.8713
70.0751,23.7591
72.0119,23.6398
74.1247,23.5184
76.0614,23.4005
78.1743,23.2702
80.111,23.1492
82.0478,23.0213
84.1606,22.892
86.0973,22.7672
88.0341,22.6355
90.1469,22.5028
92.0837,22.3748
94.0204,22.2402
96.13322,22.1046
98.06997,21.9742
100.007,21.8371
102.12,21.6993
104.056,21.5607
106.169,21.4215
108.106,21.2877
110.043,21.1472
112.155,21.0061
114.092,20.8707
116.029,20.7285
118.142,20.5858
120.078,20.4489
122.015,20.3052
124.128,20.161
126.065,20.0226
128.002,19.8774
130.114,19.7318
132.051,19.5857
134.164,19.4391
136.101,19.2984
138.037,19.1509
140.15,19.0029
142.087,18.8609
144.024,18.712
146.137,18.5625
148.073,18.4191
150.01,18.2687
152.1229,18.1178
154.06,17.9729
156.172,17.8144
158.109,17.6685
160.046,17.5155
162.159,17.3619
164.096,17.2144
166.032,17.0597
168.1451,16.9044
170.082,16.7553
172.0186,16.5988
174.131,16.4416
176.068,16.2907
178.005,16.1322
180.118,15.9731
182.054,15.8132
184.1673,15.6526
186.104,15.4984
188.0408,15.3364
190.154,15.1736
192.09,15.0171
194.027,14.8528
196.14,14.6876
198.077,14.5288
200.013,14.3619
202.126,14.1941
204.063,14.0327
206.176,13.8557
208.113,13.6926
210.049,13.5211
212.162,13.3487
214.099,13.1828
216.036,13.0083
218.148,12.8329
220.085,12.6639
222.022,12.4862
224.135,12.3075
226.072,12.1355
228.008,11.9545
230.1211,11.7724
232.058,11.5971
234.171,11.4045
236.107,11.2268
238.044,11.0398
240.157,10.8514
242.094,10.6699
244.03,10.4788
246.1433,10.2861
248.08,10.1004
250.0168,9.9047
252.13,9.70736
254.066,9.51694
256.003,9.316096
258.116,9.1133
260.053,8.90849
262.1655,8.7015
264.102,8.50145
266.039,8.28994
268.152,8.07583
270.089,7.86863
272.025,7.64924
274.138,7.42698
276.075,7.21155
278.012,6.98333
280.124,6.7519
282.061,6.52755
284.174,6.27944
286.111,6.0489
288.048,5.80472
290.16,5.55735
292.097,5.3179
294.034,5.06466
296.147,4.80848
298.083,4.56086
300.02,4.2995
302.133,4.03578
304.07,3.7816
306.006,3.514026
308.1193,3.244752
310.056,2.97436
312.169,2.70303
314.106,2.443
316.042,2.17099
318.155,1.89973
320.092,1.6414
322.029,1.37441
324.1415,1.11099
326.078,0.864499
328.015,0.614234
330.128,0.376607
332.065,0.171772
334.001,0.020931
336.114,1.1e-05
338.051,6.93889e-15
340.1637,6.93889e-15
342.1,6.93889e-15
344.0372,6.93889e-15
346.15,6.93889e-15
348.087,6.93889e-15
350.024,6.93889e-15
352.136,6.93889e-15
354.073,6.93889e-15
356.01,6.93889e-15
358.123,6.93889e-15
360.0594,6.93889e-15
362.172,6.93889e-15
364.109,6.93889e-15
366.046,6.93889e-15
368.159,6.93889e-15
370.095,6.93889e-15
372.032,6.93889e-15
374.145,6.93889e-15
376.082,6.93889e-15
378.018,6.93889e-15
380.131,6.93889e-15
382.068,6.93889e-15
384.005,6.93889e-15
386.117,6.93889e-15
388.054,6.93889e-15
390.167,6.93889e-15
392.104,6.93889e-15
394.041,6.93889e-15
396.153,6.93889e-15
398.09,6.93889e-15
400.027,6.93889e-15
402.1397,6.93889e-15
404.076,6.93889e-15
406.0132,6.93889e-15
408.126,6.93889e-15
410.063,6.93889e-15
412.176,6.93889e-15
414.112,6.93889e-15
416.049,6.93889e-15
418.1619,6.93889e-15
420.099,6.93889e-15
422.0354,6.93889e-15
424.148,6.93889e-15
426.085,6.93889e-15
428.022,6.93889e-15
430.135,6.93889e-15
432.071,6.93889e-15
434.008,6.93889e-15
436.121,6.93889e-15
438.0576,6.93889e-15
440.17,6.93889e-15
442.107,6.93889e-15
444.044,6.93889e-15
446.157,6.93889e-15
448.093,6.93889e-15
450.03,6.93889e-15
452.143,6.93889e-15
454.08,6.93889e-15
456.017,6.93889e-15
458.129,6.93889e-15
460.066,6.93889e-15
462.003,6.93889e-15
464.116,6.93889e-15
466.052,6.93889e-15
468.165,6.93889e-15
470.102,6.93889e-15
472.039,6.93889e-15
474.152,6.93889e-15
476.088,6.93889e-15
478.025,6.93889e-15
480.1379,6.93889e-15
482.075,6.93889e-15
484.0114,6.93889e-15
486.124,6.93889e-15
488.061,6.93889e-15
490.174,6.93889e-15
492.111,6.93889e-15
494.047,6.93889e-15
496.1601,6.93889e-15
498.097,6.93889e-15
500.0,6.93889e-15