File: PMMA/Validation_Results/BUW-FZJ/BUW-FZJ_ApproachA_Gasification_q50_MLR_R3.csv
Time,MLR
[s],[g/m2/s]
0.0,0.0
2.112818,0.000415521
4.04957,0.00481684
6.16239,0.0215459
8.09914,0.0586477
10.0359,0.1287488
12.1487,0.236087
14.0855,0.370209
16.0222,0.531916
18.135,0.700432
20.0718,0.8593773
22.0085,1.029159
24.1213,1.22703
26.0581,1.47602
28.1709,1.85361
30.1077,2.323382
32.0444,2.95197
34.1572,3.71491
36.094,4.54576
38.0307,5.48416
40.1435,6.45302
42.0803,7.37271
44.017,8.29874
46.12986,9.16904
48.06661,9.94068
50.00336,10.6809
52.1162,11.3541
54.0529,11.9652
56.1657,12.5188
58.1025,13.0001
60.0392,13.4583
62.1521,13.8749
64.0888,14.2391
66.0256,14.5877
68.1384,14.9066
70.0751,15.187
72.0119,15.4568
74.1247,15.7048
76.0614,15.9238
78.1743,16.1442
80.111,16.3307
82.0478,16.5112
84.1606,16.6781
86.0973,16.8262
88.0341,16.9701
90.1469,17.1033
92.0837,17.2218
94.0204,17.3371
96.13322,17.4444
98.06997,17.54
100.007,17.6333
102.12,17.7203
104.056,17.8015
106.169,17.8867
108.106,17.9572
110.043,18.0281
112.155,18.0987
114.092,18.1612
116.029,18.2255
118.142,18.287
120.078,18.3435
122.015,18.3996
124.128,18.4551
126.065,18.5061
128.002,18.5589
130.114,18.6115
132.051,18.6624
134.164,18.7136
136.101,18.7615
138.037,18.8121
140.15,18.8637
142.087,18.9104
144.024,18.9598
146.137,19.0129
148.073,19.0607
150.01,19.1104
152.1229,19.1639
154.06,19.2152
156.172,19.2694
158.109,19.3241
160.046,19.3787
162.159,19.4349
164.096,19.4902
166.032,19.5465
168.1451,19.609
170.082,19.6681
172.0186,19.73242
174.131,19.7956
176.068,19.8591
178.005,19.93
180.118,20.0001
182.054,20.071
184.1673,20.14304
186.104,20.2122
188.0408,20.2884
190.154,20.3701
192.09,20.4477
194.027,20.5301
196.14,20.6131
198.077,20.7001
200.013,20.7891
202.126,20.8834
204.063,20.9727
206.176,21.0753
208.113,21.1679
210.049,21.2698
212.162,21.3758
214.099,21.4768
216.036,21.5831
218.148,21.6973
220.085,21.8065
222.022,21.9248
224.135,22.0413
226.072,22.1582
228.008,22.2825
230.1211,22.4105
232.058,22.5466
234.171,22.6807
236.107,22.7995
238.044,22.93282
240.157,23.0711
242.094,23.2082
244.03,23.3532
246.1433,23.503
248.08,23.64745
250.0168,23.8051
252.13,23.9608
254.066,24.1228
256.003,24.2938
258.116,24.4731
260.053,24.6617
262.1655,24.8498
264.102,25.0339
266.039,25.2364
268.152,25.4601
270.089,25.67688
272.025,25.9156
274.138,26.1611
276.075,26.41538
278.012,26.6844
280.124,26.9955
282.061,27.3056
284.174,27.6398
286.111,27.9807
288.048,28.3418
290.16,28.7166
292.097,29.0806
294.034,29.487
296.147,29.8726
298.083,30.2585
300.02,30.6631
302.133,31.0567
304.07,31.4344
306.006,31.8103
308.1193,32.1883
310.056,32.5337
312.169,32.8647
314.106,33.1498
316.042,33.4448
318.155,33.70944
320.092,33.9361
322.029,34.1584
324.1415,34.3267
326.078,34.4463
328.015,34.5187
330.128,34.483
332.065,34.4796
334.001,34.2296
336.114,33.9295
338.051,33.523
340.1637,32.9868
342.1,32.3373
344.0372,30.8897
346.15,28.6672
348.087,24.78505
350.024,10.2258
352.136,0.0130988
354.073,1.99416e-08
356.01,0.0
358.123,0.0
360.0594,0.0
362.172,0.0
364.109,0.0
366.046,0.0
368.159,0.0
370.095,0.0
372.032,0.0
374.145,0.0
376.082,0.0
378.018,0.0
380.131,0.0
382.068,0.0
384.005,0.0
386.117,0.0
388.054,0.0
390.167,0.0
392.104,0.0
394.041,0.0
396.153,0.0
398.09,0.0
400.027,0.0
402.1397,0.0
404.076,0.0
406.0132,0.0
408.126,0.0
410.063,0.0
412.176,0.0
414.112,0.0
416.049,0.0
418.1619,0.0
420.099,0.0
422.0354,0.0
424.148,0.0
426.085,0.0
428.022,0.0
430.135,0.0
432.071,0.0
434.008,0.0
436.121,0.0
438.0576,0.0
440.17,0.0
442.107,0.0
444.044,0.0
446.157,0.0
448.093,0.0
450.03,0.0
452.143,0.0
454.08,0.0
456.017,0.0
458.129,0.0
460.066,0.0
462.003,0.0
464.116,0.0
466.052,0.0
468.165,0.0
470.102,0.0
472.039,0.0
474.152,0.0
476.088,0.0
478.025,0.0
480.1379,0.0
482.075,0.0
484.0114,0.0
486.124,0.0
488.061,0.0
490.174,0.0
492.111,0.0
494.047,0.0
496.1601,0.0
498.097,0.0
500.0,0.0