File: PMMA/Validation_Results/BUW-FZJ/BUW-FZJ_ApproachB_Gasification_q50_Temp_R4.csv
Time,T_back_1
[s],[K]
0.0,291.7
2.112818,291.7
4.04957,291.7
6.16239,291.7
8.09914,291.7
10.0359,291.7
12.1487,291.7
14.0855,291.7
16.0222,291.702
18.135,291.706
20.0718,291.716
22.0085,291.737
24.1213,291.775
26.0581,291.835
28.1709,291.934
30.1077,292.064
32.0444,292.246
34.1572,292.485
36.094,292.771
38.0307,293.136
40.1435,293.574
42.0803,294.063
44.017,294.653
46.12986,295.324
48.06661,296.043
50.00336,296.875
52.1162,297.79
54.0529,298.787
56.1657,299.864
58.1025,300.968
60.0392,302.197
62.1521,303.499
64.0888,304.811
66.0256,306.249
68.1384,307.753
70.0751,309.248
72.0119,310.869
74.1247,312.546
76.0614,314.199
78.1743,316.054
80.111,317.799
82.0478,319.666
84.1606,321.575
86.0973,323.437
88.0341,325.419
90.1469,327.435
92.0837,329.394
94.0204,331.471
96.13322,333.576
98.06997,335.615
100.007,337.771
102.12,339.95
104.056,342.152
106.169,344.374
108.106,346.519
110.043,348.779
112.155,351.056
114.092,353.25
116.029,355.559
118.142,357.884
120.078,360.12
122.015,362.472
124.128,364.837
126.065,367.111
128.002,369.501
130.114,371.902
132.051,374.314
134.164,376.738
136.101,379.066
138.037,381.509
140.15,383.963
142.087,386.319
144.024,388.791
146.137,391.272
148.073,393.654
150.01,396.154
152.1229,398.662
154.06,401.069
156.172,403.704
158.109,406.128
160.046,408.67
162.159,411.221
164.096,413.669
166.032,416.236
168.1451,418.812
170.082,421.283
172.0186,423.875
174.131,426.476
176.068,428.971
178.005,431.5887
180.118,434.215
182.054,436.849
184.1673,439.493
186.104,442.029
188.0408,444.689
190.154,447.358
192.09,449.918
194.027,452.604
196.14,455.298
198.077,457.883
200.013,460.594
202.126,463.315
204.063,465.925
206.176,468.782
208.113,471.409
210.049,474.164
212.162,476.927
214.099,479.578
216.036,482.358
218.148,485.147
220.085,487.823
222.022,490.628
224.135,493.442
226.072,496.142
228.008,498.971
230.1211,501.808
232.058,504.528
234.171,507.502
236.107,510.235
238.044,513.099
240.157,515.969
242.094,518.72
244.03,521.6005
246.1433,524.485
248.08,527.248
250.0168,530.139
252.13,533.0317
254.066,535.799
256.003,538.691
258.116,541.5795
260.053,544.4652
262.1655,547.344
264.102,550.092
266.039,552.956
268.152,555.812
270.089,558.53
272.025,561.356
274.138,564.164
276.075,566.834
278.012,569.604
280.124,572.351
282.061,574.955
284.174,577.767
286.111,580.316
288.048,582.95
290.16,585.547
292.097,587.997
294.034,590.523
296.147,593.013
298.083,595.363
300.02,597.788
302.133,600.182
304.07,602.447
306.006,604.794
308.1193,607.123
310.056,609.441
312.169,611.755
314.106,613.972
316.042,616.302
318.155,618.653
320.092,620.931
322.029,623.354
324.1415,625.829
326.078,628.258
328.015,630.874
330.128,633.579
332.065,636.267
334.001,639.2
336.114,642.282
338.051,645.536
340.1637,648.995
342.1,652.529
344.0372,656.506
346.15,660.835
348.087,665.384
350.024,670.677
352.136,676.702
354.073,683.419
356.01,691.895
358.123,702.921
360.0594,718.316
362.172,750.705
364.109,803.4558
366.046,838.932
368.159,859.721
370.095,872.469
372.032,881.5109
374.145,887.898
376.082,892.45
378.018,896.139
380.131,899.083
382.068,901.412
384.005,903.473
386.117,905.245
388.054,906.805
390.167,908.194
392.104,909.3905
394.041,910.525
396.153,911.558
398.09,912.466
400.027,913.342
402.1397,914.152
404.076,914.875
406.0132,915.5824
408.126,916.245
410.063,916.842
412.176,917.456
414.112,917.988
416.049,918.517
418.1619,919.019
420.099,919.475
422.0354,919.931
424.148,920.367
426.085,920.766
428.022,921.166
430.135,921.549
432.071,921.902
434.008,922.257
436.121,922.599
438.0576,922.913
440.17,923.245
442.107,923.538
444.044,923.835
446.157,924.121
448.093,924.388
450.03,924.656
452.143,924.918
454.08,925.1599
456.017,925.406
458.129,925.645
460.066,925.869
462.003,926.097
464.116,926.321
466.052,926.54
468.165,926.752
470.102,926.951
472.039,927.153
474.152,927.351
476.088,927.535
478.025,927.723
480.1379,927.907
482.075,928.078
484.0114,928.253
486.124,928.425
488.061,928.584
490.174,928.754
492.111,928.907
494.047,929.064
496.1601,929.216
498.097,929.36
500.0,929.505