File: PMMA/Validation_Results/BUW-FZJ/BUW-FZJ_A_Gasification_q50_Mass_R4.csv
Time,Mass
[s],[g]
0.0,25.3526
2.1128,25.3526
4.0496,25.3526
6.1624,25.3525
8.0991,25.3522
10.0359,25.3515
12.1487,25.35
14.0855,25.3477
16.0222,25.3442
18.135,25.3393
20.0718,25.3335
22.0085,25.3261
24.1213,25.3173
26.0581,25.3072
28.1709,25.2936
30.1077,25.278
32.0444,25.2573
34.1572,25.2312
36.094,25.2002
38.0307,25.1609
40.1435,25.1141
42.0803,25.0623
44.017,25.001
46.1299,24.9327
48.0666,24.8612
50.0034,24.7807
52.1162,24.6947
54.0529,24.6037
56.1657,24.5082
58.1025,24.413
60.0392,24.3099
62.1521,24.2033
64.0888,24.0985
66.0256,23.9862
68.1384,23.8713
70.0751,23.7591
72.0119,23.6398
74.1247,23.5184
76.0614,23.4005
78.1743,23.2702
80.111,23.1492
82.0478,23.0213
84.1606,22.892
86.0973,22.7672
88.0341,22.6355
90.1469,22.5028
92.0837,22.3748
94.0204,22.2402
96.1332,22.1046
98.07,21.9742
100.0067,21.8371
102.1195,21.6993
104.0563,21.5607
106.1691,21.4215
108.1059,21.2877
110.0426,21.1472
112.1554,21.0061
114.0922,20.8707
116.0289,20.7285
118.1417,20.5858
120.0785,20.4489
122.0152,20.3052
124.1281,20.161
126.0648,20.0226
128.0016,19.8774
130.1144,19.7318
132.0511,19.5857
134.1639,19.4391
136.1007,19.2984
138.0374,19.1509
140.1503,19.0029
142.087,18.8609
144.0238,18.712
146.1366,18.5625
148.0733,18.4191
150.0101,18.2687
152.1229,18.1178
154.0596,17.9729
156.1725,17.8144
158.1092,17.6685
160.046,17.5155
162.1588,17.3619
164.0955,17.2144
166.0323,17.0597
168.1451,16.9044
170.0818,16.7553
172.0186,16.5988
174.1314,16.4416
176.0682,16.2907
178.0049,16.1322
180.1177,15.9731
182.0545,15.8132
184.1673,15.6526
186.104,15.4984
188.0408,15.3364
190.1536,15.1736
192.0904,15.0171
194.0271,14.8528
196.1399,14.6876
198.0767,14.5288
200.0134,14.3619
202.1263,14.1941
204.063,14.0327
206.1758,13.8557
208.1126,13.6926
210.0493,13.5211
212.1621,13.3487
214.0989,13.1828
216.0356,13.0083
218.1485,12.8329
220.0852,12.6639
222.022,12.4862
224.1348,12.3075
226.0715,12.1355
228.0083,11.9545
230.1211,11.7724
232.0578,11.5971
234.1707,11.4045
236.1074,11.2268
238.0442,11.0398
240.157,10.8514
242.0937,10.6699
244.0305,10.4788
246.1433,10.2861
248.08,10.1004
250.0168,9.9047
252.1296,9.7074
254.0664,9.5169
256.0031,9.3161
258.1159,9.1133
260.0527,8.9085
262.1655,8.7015
264.1023,8.5015
266.039,8.2899
268.1518,8.0758
270.0886,7.8686
272.0253,7.6492
274.1381,7.427
276.0749,7.2115
278.0116,6.9833
280.1245,6.7519
282.0612,6.5276
284.174,6.2794
286.1108,6.0489
288.0475,5.8047
290.1603,5.5573
292.0971,5.3179
294.0338,5.0647
296.1467,4.8085
298.0834,4.5609
300.0202,4.2995
302.133,4.0358
304.0697,3.7816
306.0065,3.514
308.1193,3.2448
310.056,2.9744
312.1689,2.703
314.1056,2.443
316.0424,2.171
318.1552,1.8997
320.0919,1.6414
322.0287,1.3744
324.1415,1.111
326.0783,0.8645
328.015,0.6142
330.1278,0.3766
332.0646,0.1718
334.0013,0.0209
336.1141,0.0
338.0509,0.0
340.1637,0.0
342.1005,0.0
344.0372,0.0
346.15,0.0
348.0868,0.0
350.0235,0.0
352.1363,0.0
354.0731,0.0
356.0098,0.0
358.1226,0.0
360.0594,0.0
362.1722,0.0
364.109,0.0
366.0457,0.0
368.1585,0.0
370.0953,0.0
372.032,0.0
374.1449,0.0
376.0816,0.0
378.0184,0.0
380.1312,0.0
382.0679,0.0
384.0047,0.0
386.1175,0.0
388.0542,0.0
390.1671,0.0
392.1038,0.0
394.0406,0.0
396.1534,0.0
398.0901,0.0
400.0269,0.0
402.1397,0.0
404.0764,0.0
406.0132,0.0
408.126,0.0
410.0628,0.0
412.1756,0.0
414.1123,0.0
416.0491,0.0
418.1619,0.0
420.0986,0.0
422.0354,0.0
424.1482,0.0
426.085,0.0
428.0217,0.0
430.1345,0.0
432.0713,0.0
434.008,0.0
436.1208,0.0
438.0576,0.0
440.1704,0.0
442.1072,0.0
444.0439,0.0
446.1567,0.0
448.0935,0.0
450.0302,0.0
452.1431,0.0
454.0798,0.0
456.0166,0.0
458.1294,0.0
460.0661,0.0
462.0029,0.0
464.1157,0.0
466.0524,0.0
468.1653,0.0
470.102,0.0
472.0388,0.0
474.1516,0.0
476.0883,0.0
478.0251,0.0
480.1379,0.0
482.0746,0.0
484.0114,0.0
486.1242,0.0
488.061,0.0
490.1738,0.0
492.1105,0.0
494.0473,0.0
496.1601,0.0
498.0968,0.0
500.0,0.0