File: PMMA/Validation_Results/BUW-FZJ/BUW-FZJ_ApproachB_Gasification_q50_MLR_R3.csv
Time,MLR
[s],[g/m2/s]
0.0,0.0
2.112818,8.63347e-11
4.04957,5.54695e-08
6.16239,2.922108e-06
8.09914,4.07359e-05
10.0359,0.00033116
12.1487,0.00179197
14.0855,0.00674623
16.0222,0.0216753
18.135,0.059189
20.0718,0.135818
22.0085,0.28931
24.1213,0.559925
26.0581,0.966997
28.1709,1.60799
30.1077,2.376068
32.0444,3.32667
34.1572,4.36472
36.094,5.373725
38.0307,6.39205
40.1435,7.33899
42.0803,8.16535
44.017,8.94494
46.12986,9.64288
48.06661,10.2425
50.00336,10.8066
52.1162,11.3143
54.0529,11.7735
56.1657,12.19004
58.1025,12.55383
60.0392,12.9023
62.1521,13.2218
64.0888,13.5036
66.0256,13.7759
68.1384,14.0277
70.0751,14.2515
72.0119,14.4694
74.1247,14.6724
76.0614,14.8539
78.1743,15.0393
80.111,15.1987
82.0478,15.3555
84.1606,15.5033
86.0973,15.6369
88.0341,15.7694
90.1469,15.8952
92.0837,16.0098
94.0204,16.1244
96.13322,16.2341
98.06997,16.3351
100.007,16.4369
102.12,16.5355
104.056,16.6312
106.169,16.7245
108.106,16.8119
110.043,16.9017
112.155,16.9902
114.092,17.074
116.029,17.1609
118.142,17.2475
120.078,17.3301
122.015,17.4166
124.128,17.5033
126.065,17.5955
128.002,17.6819
130.114,17.7705
132.051,17.8602
134.164,17.9516
136.101,18.0394
138.037,18.1309
140.15,18.2232
142.087,18.3116
144.024,18.4054
146.137,18.4992
148.073,18.5901
150.01,18.6839
152.1229,18.7792
154.06,18.8708
156.172,18.9719
158.109,19.0652
160.046,19.1633
162.159,19.262
164.096,19.3562
166.032,19.45627
168.1451,19.5581
170.082,19.6565
172.0186,19.7598
174.131,19.8648
176.068,19.9668
178.005,20.0746
180.118,20.1839
182.054,20.2958
184.1673,20.4071
186.104,20.5153
188.0408,20.6299
190.154,20.7454
192.09,20.85738
194.027,20.9774
196.14,21.0998
198.077,21.21837
200.013,21.345
202.126,21.4743
204.063,21.5984
206.176,21.7361
208.113,21.8652
210.049,22.00105
212.162,22.1383
214.099,22.27295
216.036,22.4181
218.148,22.56605
220.085,22.7123
222.022,22.8664
224.135,23.0224
226.072,23.1757
228.008,23.3377
230.1211,23.503
232.058,23.6641
234.171,23.8463
236.107,24.0173
238.044,24.2028
240.157,24.3908
242.094,24.5727
244.03,24.7681
246.1433,24.9697
248.08,25.166
250.0168,25.3759
252.13,25.5876
254.066,25.8021
256.003,26.0303
258.116,26.2612
260.053,26.4976
262.1655,26.7388
264.102,26.9749
266.039,27.2253
268.152,27.4798
270.089,27.7266
272.025,27.988
274.138,28.2519
276.075,28.5055
278.012,28.7709
280.124,29.0371
282.061,29.2904
284.174,29.5629
286.111,29.8086
288.048,30.0598
290.16,30.304
292.097,30.5299
294.034,30.7597
296.147,30.9779
298.083,31.1775
300.02,31.3775
302.133,31.565
304.07,31.7362
306.006,31.9036
308.1193,32.0617
310.056,32.2101
312.169,32.3505
314.106,32.4756
316.042,32.5975
318.155,32.7117
320.092,32.8111
322.029,32.9057
324.1415,32.9859
326.078,33.0515
328.015,33.1024
330.128,33.1312
332.065,33.13265
334.001,33.0946
336.114,33.0021
338.051,32.8233
340.1637,32.5323
342.1,32.069
344.0372,31.2427
346.15,29.72928
348.087,26.8371
350.024,19.1327
352.136,0.727643
354.073,0.0
356.01,0.0
358.123,0.0
360.0594,0.0
362.172,0.0
364.109,0.0
366.046,0.0
368.159,0.0
370.095,0.0
372.032,0.0
374.145,0.0
376.082,0.0
378.018,0.0
380.131,0.0
382.068,0.0
384.005,0.0
386.117,0.0
388.054,0.0
390.167,0.0
392.104,0.0
394.041,0.0
396.153,0.0
398.09,0.0
400.027,0.0
402.1397,0.0
404.076,0.0
406.0132,0.0
408.126,0.0
410.063,0.0
412.176,0.0
414.112,0.0
416.049,0.0
418.1619,0.0
420.099,0.0
422.0354,0.0
424.148,0.0
426.085,0.0
428.022,0.0
430.135,0.0
432.071,0.0
434.008,0.0
436.121,0.0
438.0576,0.0
440.17,0.0
442.107,0.0
444.044,0.0
446.157,0.0
448.093,0.0
450.03,0.0
452.143,0.0
454.08,0.0
456.017,0.0
458.129,0.0
460.066,0.0
462.003,0.0
464.116,0.0
466.052,0.0
468.165,0.0
470.102,0.0
472.039,0.0
474.152,0.0
476.088,0.0
478.025,0.0
480.1379,0.0
482.075,0.0
484.0114,0.0
486.124,0.0
488.061,0.0
490.174,0.0
492.111,0.0
494.047,0.0
496.1601,0.0
498.097,0.0
500.0,0.0