File: PMMA/Validation_Results/BUW-FZJ/BUW-FZJ_PMMA01_Gasification_q50_Temp_R4.csv
Time,T_back_1
[s],[K]
0.0,291.7
2.112818,291.7
4.04957,291.7
6.16239,291.7
8.09914,291.7
10.0359,291.707
12.1487,291.735
14.0855,291.808
16.0222,291.958
18.135,292.212
20.0718,292.565
22.0085,293.061
24.1213,293.688
26.0581,294.407
28.1709,295.319
30.1077,296.263
32.0444,297.351
34.1572,298.535
36.094,299.746
38.0307,301.087
40.1435,302.496
42.0803,303.9
44.017,305.419
46.12986,306.985
48.06661,308.519
50.00336,310.157
52.1162,311.823
54.0529,313.512
56.1657,315.219
58.1025,316.865
60.0392,318.595
62.1521,320.329
64.0888,321.988
66.0256,323.716
68.1384,325.437
70.0751,327.082
72.0119,328.802
74.1247,330.519
76.0614,332.158
78.1743,333.942
80.111,335.573
82.0478,337.272
84.1606,338.964
86.0973,340.576
88.0341,342.253
90.1469,343.92
92.0837,345.507
94.0204,347.155
96.13322,348.792
98.06997,350.348
100.007,351.962
102.12,353.564
104.056,355.153
106.169,356.728
108.106,358.221
110.043,359.768
112.155,361.3
114.092,362.75
116.029,364.25
118.142,365.732
120.078,367.133
122.015,368.58
124.128,370.006
126.065,371.349
128.002,372.732
130.114,374.088
132.051,375.421
134.164,376.738
136.101,377.9822
138.037,379.271
140.15,380.549
142.087,381.764
144.024,383.026
146.137,384.281
148.073,385.478
150.01,386.724
152.1229,387.968
154.06,389.155
156.172,390.45
158.109,391.636
160.046,392.877
162.159,394.118
164.096,395.309
166.032,396.557
168.1451,397.808
170.082,399.01
172.0186,400.272
174.131,401.541
176.068,402.761
178.005,404.045
180.118,405.339
182.054,406.644
184.1673,407.9598
186.104,409.23
188.0408,410.572
190.154,411.93
192.09,413.243
194.027,414.634
196.14,416.045
198.077,417.415
200.013,418.87
202.126,420.352
204.063,421.795
206.176,423.405
208.113,424.91
210.049,426.509
212.162,428.133
214.099,429.711
216.036,431.386
218.148,433.089
220.085,434.745
222.022,436.506
224.135,438.3
226.072,440.047
228.008,441.909
230.1211,443.808
232.058,445.662
234.171,447.7295
236.107,449.668
238.044,451.74
240.157,453.865
242.094,455.949
244.03,458.185
246.1433,460.486
248.08,462.753
250.0168,465.198
252.13,467.728
254.066,470.236
256.003,472.966
258.116,475.824
260.053,478.812
262.1655,481.935
264.102,485.05
266.039,488.447
268.152,491.999
270.089,495.547
272.025,499.426
274.138,503.49
276.075,507.559
278.012,512.014
280.124,516.693
282.061,521.391
284.174,526.79
286.111,532.0152
288.048,537.775
290.16,543.889
292.097,550.135
294.034,557.202
296.147,565.1
298.083,573.986
300.02,582.754
302.133,589.575
304.07,595.072
306.006,600.049
308.1193,604.354
310.056,608.193
312.169,611.617
314.106,614.591
316.042,617.435
318.155,620.047
320.092,622.371
322.029,624.646
324.1415,626.797
326.078,628.764
328.015,630.742
330.128,632.664
332.065,634.459
334.001,636.314
336.114,638.139
338.051,639.964
340.1637,641.781
342.1,643.532
344.0372,645.369
346.15,647.219
348.087,649.02
350.024,650.921
352.136,652.858
354.073,654.752
356.01,656.776
358.123,658.85
360.0594,660.891
362.172,663.204
364.109,665.3982
366.046,667.807
368.159,670.338
370.095,672.864
372.032,675.71
374.145,678.828
376.082,682.053
378.018,685.702
380.131,689.935
382.068,694.736
384.005,700.846
386.117,708.967
388.054,720.763
390.167,742.277
392.104,792.907
394.041,831.904
396.153,849.118
398.09,858.549
400.027,865.11
402.1397,869.909
404.076,873.563
406.0132,876.744
408.126,879.461
410.063,881.749
412.176,883.978
414.112,885.822
416.049,887.588
418.1619,889.209
420.099,890.6439
422.0354,892.04
424.148,893.342
426.085,894.506
428.022,895.648
430.135,896.713
432.071,897.661
434.008,898.601
436.121,899.491
438.0576,900.277
440.17,901.108
442.107,901.806
444.044,902.52
446.157,903.184
448.093,903.776
450.03,904.374
452.143,904.954
454.08,905.471
456.017,905.981
458.129,906.466
460.066,906.913
462.003,907.36
464.116,907.784
466.052,908.19
468.165,908.577
470.102,908.932
472.039,909.288
474.152,909.628
476.088,909.939
478.025,910.253
480.1379,910.553
482.075,910.83
484.0114,911.108
486.124,911.375
488.061,911.622
490.174,911.881
492.111,912.11
494.047,912.341
496.1601,912.565
498.097,912.771
500.0,912.976