File: PMMA/Validation_Results/BUW-FZJ/BUW-FZJ_ApproachA_Gasification_q50_Temp_R5.csv
Time,T_back_1
[s],[K]
0.0,291.67
2.1128,291.67
4.0496,291.67
6.1624,291.67
8.0991,291.67
10.0359,291.67
12.1487,291.67
14.0855,291.67
16.0222,291.6701
18.135,291.6704
20.0718,291.6714
22.0085,291.674
24.1213,291.6798
26.0581,291.6902
28.1709,291.7098
30.1077,291.7384
32.0444,291.7828
34.1572,291.8461
36.094,291.9277
38.0307,292.0391
40.1435,292.1812
42.0803,292.3489
44.017,292.5608
46.1299,292.8135
48.0666,293.0956
50.0034,293.4348
52.1162,293.8217
54.0529,294.2574
56.1657,294.7436
58.1025,295.2564
60.0392,295.8429
62.1521,296.4816
64.0888,297.141
66.0256,297.8808
68.1384,298.6721
70.0751,299.4761
72.0119,300.3652
74.1247,301.3036
76.0614,302.2456
78.1743,303.3221
80.111,304.3523
82.0478,305.4725
84.1606,306.6359
86.0973,307.7877
88.0341,309.0311
90.1469,310.3141
92.0837,311.5765
94.0204,312.9322
96.1332,314.3235
98.07,315.6865
100.0067,317.1438
102.1195,318.6335
104.0563,320.1542
106.1691,321.7053
108.1059,323.2167
110.0426,324.8245
112.1554,326.4602
114.0922,328.0499
116.0289,329.7373
118.1417,331.4504
120.0785,333.1123
122.0152,334.8734
124.1281,336.6582
126.0648,338.387
128.0016,340.2166
130.1144,342.0686
132.0511,343.9424
134.1639,345.8378
136.1007,347.6705
138.0374,349.6067
140.1503,351.5637
142.087,353.4545
144.0238,355.4506
146.1366,357.4666
148.0733,359.4132
150.0101,361.4672
152.1229,363.5406
154.0596,365.5416
156.1725,367.7444
158.1092,369.7815
160.046,371.9296
162.1588,374.0964
164.0955,376.1862
166.0323,378.3891
168.1451,380.6108
170.0818,382.7524
172.0186,385.0093
174.1314,387.2846
176.0682,389.4778
178.0049,391.7886
180.1177,394.1177
182.0545,396.4646
184.1673,398.8299
186.104,401.1093
188.0408,403.5098
190.1536,405.9288
192.0904,408.2594
194.0271,410.7135
196.1399,413.186
198.0767,415.568
200.0134,418.076
202.1263,420.6024
204.063,423.036
206.1758,425.71
208.1126,428.1789
210.0493,430.7779
212.1621,433.3956
214.0989,435.9168
216.0356,438.5706
218.1485,441.2434
220.0852,443.8181
222.022,446.5275
224.1348,449.2557
226.0715,451.8835
228.0083,454.6495
230.1211,457.435
232.0578,460.1176
234.1707,463.0651
236.1074,465.786
238.0442,468.6505
240.157,471.5356
242.0937,474.3152
244.0305,477.2415
246.1433,480.1895
248.08,483.0302
250.0168,486.0215
252.1296,489.0366
254.0664,491.9426
256.0031,495.0038
258.1159,498.0896
260.0527,501.2008
262.1655,504.3394
264.1023,507.3642
266.039,510.5536
268.1518,513.7708
270.0886,516.8745
272.0253,520.1468
274.1381,523.4484
276.0749,526.6335
278.0116,529.9918
280.1245,533.3785
282.0612,536.6433
284.174,540.2302
286.1108,543.5402
288.0475,547.0227
290.1603,550.523
292.0971,553.8892
294.0338,557.4256
296.1467,560.9737
298.0834,564.3727
300.0202,567.9318
302.133,571.4958
304.0697,574.906
306.0065,578.4699
308.1193,582.029
310.056,585.5815
312.1689,589.1205
314.1056,592.4893
316.0424,595.9958
318.1552,599.4878
320.0919,602.8147
322.0287,606.2814
324.1415,609.739
326.0783,613.0417
328.015,616.4949
330.1278,619.9557
332.0646,623.2806
334.0013,626.7815
336.1141,630.3214
338.0509,633.913
340.1637,637.5776
342.1005,641.1664
344.0372,645.0261
346.15,649.0182
348.0868,652.985
350.0235,657.3196
352.1363,661.8778
354.0731,666.4932
356.0098,671.6946
358.1226,677.2961
360.0594,683.2636
362.1722,690.6837
364.109,698.5234
366.0457,708.8485
368.1585,722.7126
370.0953,741.6576
372.032,779.1639
374.1449,798.7154
376.0816,807.3343
378.0184,814.5556
380.1312,820.2431
382.0679,824.7217
384.0047,828.6902
386.1175,832.1052
388.0542,835.1194
390.1671,837.8048
392.1038,840.1227
394.0406,842.3305
396.1534,844.348
398.0901,846.1288
400.0269,847.8576
402.1397,849.4744
404.0764,850.9267
406.0132,852.3507
408.126,853.6908
410.0628,854.9023
412.1756,856.1528
414.1123,857.2387
416.0491,858.3205
418.1619,859.35
420.0986,860.2908
422.0354,861.2317
424.1482,862.1326
426.085,862.959
428.0217,863.789
430.1345,864.5889
432.0713,865.325
434.008,866.0662
436.1208,866.7806
438.0576,867.4409
440.1704,868.1372
442.1072,868.7537
444.0439,869.3802
446.1567,869.9904
448.0935,870.5568
450.0302,871.1331
452.1431,871.6919
454.0798,872.2096
456.0166,872.7385
458.1294,873.2518
460.0661,873.7276
462.0029,874.2144
464.1157,874.6872
466.0524,875.1481
468.1653,875.595
470.102,876.0156
472.0388,876.441
474.1516,876.8593
476.0883,877.2462
478.0251,877.6438
480.1379,878.0317
482.0746,878.3945
484.0114,878.7655
486.1242,879.1292
488.061,879.4692
490.1738,879.8314
492.1105,880.1585
494.0473,880.491
496.1601,880.8194
498.0968,881.1256
500.0,881.4376