File: PMMA/Validation_Results/BUW-FZJ/BUW-FZJ_ApproachB_Gasification_q50_MLR_R5.csv
Time,MLR
[s],[g/m2/s]
0.0,0.0
2.112818,8.63345e-11
4.04957,5.54694e-08
6.16239,2.92211e-06
8.09914,4.07359e-05
10.0359,0.00033116
12.1487,0.00179197
14.0855,0.00674622
16.0222,0.0216753
18.135,0.059189
20.0718,0.135818
22.0085,0.28931
24.1213,0.559926
26.0581,0.966998
28.1709,1.60799
30.1077,2.376074
32.0444,3.32668
34.1572,4.36474
36.094,5.37375
38.0307,6.39208
40.1435,7.33902
42.0803,8.16538
44.017,8.94496
46.12986,9.64288
48.06661,10.2425
50.00336,10.8066
52.1162,11.3142
54.0529,11.7733
56.1657,12.1897
58.1025,12.5533
60.0392,12.9016
62.1521,13.2208
64.0888,13.5021
66.0256,13.774
68.1384,14.0252
70.0751,14.2482
72.0119,14.4652
74.1247,14.6671
76.0614,14.8474
78.1743,15.0312
80.111,15.1889
82.0478,15.3438
84.1606,15.4892
86.0973,15.6205
88.0341,15.7501
90.1469,15.8727
92.0837,15.9841
94.0204,16.0948
96.13322,16.2004
98.06997,16.2971
100.007,16.3941
102.12,16.4874
104.056,16.5775
106.169,16.6648
108.106,16.7461
110.043,16.8292
112.155,16.91054
114.092,16.9871
116.029,17.0662
118.142,17.1444
120.078,17.2188
122.015,17.2962
124.128,17.3735
126.065,17.4474
128.002,17.52477
130.114,17.6129
132.051,17.68998
134.164,17.7667
136.101,17.8435
138.037,17.9252
140.15,18.0057
142.087,18.0818
144.024,18.1632
146.137,18.2436
148.073,18.3215
150.01,18.4023
152.1229,18.484
154.06,18.5618
156.172,18.647
158.109,18.7263
160.046,18.8105
162.159,18.8936
164.096,18.9733
166.032,19.0579
168.1451,19.1434
170.082,19.2255
172.0186,19.3121
174.131,19.4
176.068,19.4848
178.005,19.57485
180.118,19.6664
182.054,19.7589
184.1673,19.8523
186.104,19.9423
188.0408,20.0373
190.154,20.1338
192.09,20.2271
194.027,20.3246
196.14,20.4251
198.077,20.522
200.013,20.6265
202.126,20.7334
204.063,20.83556
206.176,20.9489
208.113,21.0545
210.049,21.166
212.162,21.2779
214.099,21.3872
216.036,21.505
218.148,21.625
220.085,21.7414
222.022,21.8678
224.135,21.9948
226.072,22.1179
228.008,22.2486
230.1211,22.3828
232.058,22.5116
234.171,22.6552
236.107,22.7902
238.044,22.93561
240.157,23.086
242.094,23.2323
244.03,23.3869
246.1433,23.5451
248.08,23.7
250.0168,23.8656
252.13,24.034
254.066,24.1973
256.003,24.3738
258.116,24.55848
260.053,24.7477
262.1655,24.93853
264.102,25.1271
266.039,25.3278
268.152,25.5323
270.089,25.7344
272.025,25.9487
274.138,26.1709
276.075,26.3884
278.012,26.6211
280.124,26.8569
282.061,27.0871
284.174,27.3427
286.111,27.5814
288.048,27.8329
290.16,28.0888
292.097,28.3348
294.034,28.5927
296.147,28.8513
298.083,29.0979
300.02,29.3547
302.133,29.6075
304.07,29.8454
306.006,30.0886
308.1193,30.324
310.056,30.55208
312.169,30.7731
314.106,30.9729
316.042,31.175
318.155,31.3663
320.092,31.5396
322.029,31.7116
324.1415,31.8728
326.078,32.0192
328.015,32.163
330.128,32.2971
332.065,32.4186
334.001,32.5371
336.114,32.6464
338.051,32.7467
340.1637,32.8344
342.1,32.9076
344.0372,32.9717
346.15,33.0184
348.087,33.0399
350.024,33.0354
352.136,32.9875
354.073,32.88374
356.01,32.7037
358.123,32.389
360.0594,31.8909
362.172,30.9789
364.109,29.4161
366.046,26.1727
368.159,17.4123
370.095,0.4465316
372.032,0.0
374.145,0.0
376.082,0.0
378.018,0.0
380.131,0.0
382.068,0.0
384.005,0.0
386.117,0.0
388.054,0.0
390.167,0.0
392.104,0.0
394.041,0.0
396.153,0.0
398.09,0.0
400.027,0.0
402.1397,0.0
404.076,0.0
406.0132,0.0
408.126,0.0
410.063,0.0
412.176,0.0
414.112,0.0
416.049,0.0
418.1619,0.0
420.099,0.0
422.0354,0.0
424.148,0.0
426.085,0.0
428.022,0.0
430.135,0.0
432.071,0.0
434.008,0.0
436.121,0.0
438.0576,0.0
440.17,0.0
442.107,0.0
444.044,0.0
446.157,0.0
448.093,0.0
450.03,0.0
452.143,0.0
454.08,0.0
456.017,0.0
458.129,0.0
460.066,0.0
462.003,0.0
464.116,0.0
466.052,0.0
468.165,0.0
470.102,0.0
472.039,0.0
474.152,0.0
476.088,0.0
478.025,0.0
480.1379,0.0
482.075,0.0
484.0114,0.0
486.124,0.0
488.061,0.0
490.174,0.0
492.111,0.0
494.047,0.0
496.1601,0.0
498.097,0.0
500.0,0.0