File: PMMA/Validation_Results/BUW-FZJ/BUW-FZJ_ApproachA_Gasification_q50_Temp_R2.csv
Time,T_back_1
[s],[K]
0.0,291.2
2.112818,291.2
4.04957,291.2
6.16239,291.2
8.09914,291.2
10.0359,291.2
12.1487,291.2
14.0855,291.2
16.0222,291.202
18.135,291.206
20.0718,291.215
22.0085,291.235
24.1213,291.272
26.0581,291.329
28.1709,291.423
30.1077,291.547
32.0444,291.721
34.1572,291.948
36.094,292.22
38.0307,292.568
40.1435,292.984
42.0803,293.451
44.017,294.011
46.12986,294.65
48.06661,295.334
50.00336,296.126
52.1162,296.997
54.0529,297.946
56.1657,298.974
58.1025,300.027
60.0392,301.201
62.1521,302.447
64.0888,303.704
66.0256,305.084
68.1384,306.529
70.0751,307.969
72.0119,309.533
74.1247,311.154
76.0614,312.755
78.1743,314.556
80.111,316.253
82.0478,318.074
84.1606,319.939
86.0973,321.763
88.0341,323.709
90.1469,325.693
92.0837,327.625
94.0204,329.679
96.13322,331.766
98.06997,333.792
100.007,335.94
102.12,338.117
104.056,340.323
106.169,342.555
108.106,344.714
110.043,346.996
112.155,349.303
114.092,351.531
116.029,353.882
118.142,356.256
120.078,358.546
122.015,360.962
124.128,363.398
126.065,365.747
128.002,368.222
130.114,370.717
132.051,373.2317
134.164,375.765
136.101,378.206
138.037,380.776
140.15,383.3646
142.087,385.857
144.024,388.4814
146.137,391.123
148.073,393.667
150.01,396.345
152.1229,399.04
154.06,401.635
156.172,404.483
158.109,407.112
160.046,409.877
162.159,412.66
164.096,415.338
166.032,418.156
168.1451,420.992
170.082,423.7209
172.0186,426.591
174.131,429.48
176.068,432.26
178.005,435.184
180.118,438.126
182.054,441.086
184.1673,444.066
186.104,446.932
188.0408,449.948
190.154,452.982
192.09,455.902
194.027,458.973
196.14,462.065
198.077,465.04
200.013,468.17
202.126,471.322
204.063,474.354
206.176,477.685
208.113,480.759
210.049,483.995
212.162,487.254
214.099,490.393
216.036,493.699
218.148,497.029
220.085,500.238
222.022,503.618
224.135,507.026
226.072,510.312
228.008,513.775
230.1211,517.269
232.058,520.637
234.171,524.343
236.107,527.77
238.044,531.383
240.157,535.026
242.094,538.536
244.03,542.233
246.1433,545.953
248.08,549.533
250.0168,553.296
252.13,557.079
254.066,560.715
256.003,564.522
258.116,568.3368
260.053,572.158
262.1655,575.982
264.102,579.637
266.039,583.455
268.152,587.265
270.089,590.898
272.025,594.674
274.138,598.434
276.075,602.014
278.012,605.743
280.124,609.4593
282.061,613.008
284.174,616.877
286.111,620.43
288.048,624.163
290.16,627.922
292.097,631.558
294.034,635.42
296.147,639.369
298.083,643.241
300.02,647.421
302.133,651.758
304.07,656.1
306.006,660.845
308.1193,665.94
310.056,671.321
312.169,677.192
314.106,683.376
316.042,690.701
318.155,699.282
320.092,709.476
322.029,723.225
324.1415,747.006
326.078,786.556
328.015,799.916
330.128,808.233
332.065,814.689
334.001,820.123
336.114,824.622
338.051,828.463
340.1637,831.787
342.1,834.617
344.0372,837.269
346.15,839.659
348.087,841.748
350.024,843.755
352.136,845.603
354.073,847.248
356.01,848.858
358.123,850.37
360.0594,851.733
362.172,853.13
364.109,854.342
366.046,855.541
368.159,856.681
370.095,857.72
372.032,858.753
374.145,859.742
376.082,860.646
378.018,861.552
380.131,862.421
382.068,863.219
384.005,864.024
386.117,864.7977
388.054,865.544
390.167,866.264
392.104,866.928
394.041,867.6
396.153,868.2515
398.09,868.853
400.027,869.465
402.1397,870.062
404.076,870.6174
406.0132,871.182
408.126,871.731
410.063,872.24
412.176,872.781
414.112,873.264
416.049,873.752
418.1619,874.231
420.099,874.677
422.0354,875.131
424.148,875.572
426.085,875.987
428.022,876.407
430.135,876.82
432.071,877.203
434.008,877.596
436.121,877.979
438.0576,878.338
440.17,878.72
442.107,879.065
444.044,879.417
446.157,879.7612
448.093,880.086
450.03,880.416
452.143,880.741
454.08,881.047
456.017,881.357
458.129,881.666
460.066,881.9507
462.003,882.247
464.116,882.537
466.052,882.821
468.165,883.101
470.102,883.363
472.039,883.633
474.152,883.897
476.088,884.146
478.025,884.402
480.1379,884.6525
482.075,884.889
484.0114,885.134
486.124,885.371
488.061,885.5964
490.174,885.839
492.111,886.0543
494.047,886.28
496.1601,886.501
498.097,886.708
500.0,886.92