File: PMMA/Validation_Results/BUW-FZJ/BUW-FZJ_A_Gasification_q50_MLR_R5.csv
Time,MLR
[s],[g/m2/s]
0.0,0.0
2.1128,0.0004
4.0496,0.0048
6.1624,0.0215
8.0991,0.0587
10.0359,0.1288
12.1487,0.2361
14.0855,0.3702
16.0222,0.5319
18.135,0.7004
20.0718,0.8594
22.0085,1.0292
24.1213,1.227
26.0581,1.476
28.1709,1.8536
30.1077,2.3234
32.0444,2.952
34.1572,3.7149
36.094,4.5458
38.0307,5.4842
40.1435,6.4531
42.0803,7.3728
44.017,8.2988
46.1299,9.1691
48.0666,9.9408
50.0034,10.681
52.1162,11.3542
54.0529,11.9653
56.1657,12.5188
58.1025,13.0001
60.0392,13.4583
62.1521,13.8748
64.0888,14.2389
66.0256,14.5874
68.1384,14.9061
70.0751,15.1863
72.0119,15.4558
74.1247,15.7036
76.0614,15.9222
78.1743,16.142
80.111,16.328
82.0478,16.5078
84.1606,16.6739
86.0973,16.8211
88.0341,16.9638
90.1469,17.0956
92.0837,17.2127
94.0204,17.3263
96.1332,17.4317
98.07,17.5253
100.0067,17.6162
102.1195,17.7006
104.0563,17.7789
106.1691,17.8517
108.1059,17.9253
110.0426,17.9923
112.1554,18.0558
114.0922,18.1122
116.0289,18.1718
118.1417,18.2266
120.0785,18.2765
122.0152,18.3276
124.1281,18.3776
126.0648,18.4224
128.0016,18.4675
130.1144,18.5107
132.0511,18.553
134.1639,18.5948
136.1007,18.632
138.0374,18.6751
140.1503,18.7147
142.087,18.7536
144.0238,18.7926
146.1366,18.8297
148.0733,18.8687
150.0101,18.9076
152.1229,18.9465
154.0596,18.9855
156.1725,19.0279
158.1092,19.0668
160.046,19.109
162.1588,19.1503
164.0955,19.191
166.0323,19.2394
168.1451,19.2808
170.0818,19.3233
172.0186,19.369
174.1314,19.4145
176.0682,19.4591
178.0049,19.5111
180.1177,19.5622
182.0545,19.6131
184.1673,19.6663
186.104,19.7178
188.0408,19.777
190.1536,19.8348
192.0904,19.891
194.0271,19.9543
196.1399,20.0165
198.0767,20.0795
200.0134,20.1464
202.1263,20.2166
204.063,20.2883
206.1758,20.3609
208.1126,20.4311
210.0493,20.5057
212.1621,20.5831
214.0989,20.6596
216.0356,20.7451
218.1485,20.8295
220.0852,20.9154
222.022,21.0032
224.1348,21.0975
226.0715,21.1867
228.0083,21.2876
230.1211,21.3963
232.0578,21.4872
234.1707,21.5924
236.1074,21.6932
238.0442,21.7986
240.157,21.9073
242.0937,22.0185
244.0305,22.1331
246.1433,22.2519
248.08,22.3661
250.0168,22.5061
252.1296,22.6244
254.0664,22.7408
256.0031,22.8673
258.1159,22.998
260.0527,23.1378
262.1655,23.2762
264.1023,23.4168
266.039,23.575
268.1518,23.7167
270.0886,23.8501
272.0253,24.001
274.1381,24.1604
276.0749,24.3179
278.0116,24.4885
280.1245,24.6701
282.0612,24.8503
284.174,25.0564
286.1108,25.2554
288.0475,25.4751
290.1603,25.708
292.0971,25.9373
294.0338,26.192
296.1467,26.4634
298.0834,26.7443
300.0202,27.0698
302.133,27.3832
304.0697,27.6894
306.0065,28.0588
308.1193,28.4032
310.056,28.7884
312.1689,29.1441
314.1056,29.5251
316.0424,29.9163
318.1552,30.2833
320.0919,30.64
322.0287,31.0244
324.1415,31.3892
326.0783,31.721
328.015,32.0595
330.1278,32.3778
332.0646,32.6586
334.0013,32.9444
336.1141,33.207
338.0509,33.4471
340.1637,33.6436
342.1005,33.7923
344.0372,33.9069
346.15,34.0067
348.0868,34.0703
350.0235,33.9896
352.1363,33.856
354.0731,33.775
356.0098,33.3837
358.1226,32.7081
360.0594,32.0511
362.1722,31.3498
364.109,29.8952
366.0457,27.3807
368.1585,19.8432
370.0953,3.5395
372.032,0.0008
374.1449,0.0
376.0816,0.0
378.0184,0.0
380.1312,0.0
382.0679,0.0
384.0047,0.0
386.1175,0.0
388.0542,0.0
390.1671,0.0
392.1038,0.0
394.0406,0.0
396.1534,0.0
398.0901,0.0
400.0269,0.0
402.1397,0.0
404.0764,0.0
406.0132,0.0
408.126,0.0
410.0628,0.0
412.1756,0.0
414.1123,0.0
416.0491,0.0
418.1619,0.0
420.0986,0.0
422.0354,0.0
424.1482,0.0
426.085,0.0
428.0217,0.0
430.1345,0.0
432.0713,0.0
434.008,0.0
436.1208,0.0
438.0576,0.0
440.1704,0.0
442.1072,0.0
444.0439,0.0
446.1567,0.0
448.0935,0.0
450.0302,0.0
452.1431,0.0
454.0798,0.0
456.0166,0.0
458.1294,0.0
460.0661,0.0
462.0029,0.0
464.1157,0.0
466.0524,0.0
468.1653,0.0
470.102,0.0
472.0388,0.0
474.1516,0.0
476.0883,0.0
478.0251,0.0
480.1379,0.0
482.0746,0.0
484.0114,0.0
486.1242,0.0
488.061,0.0
490.1738,0.0
492.1105,0.0
494.0473,0.0
496.1601,0.0
498.0968,0.0
500.0,0.0