File: PMMA/Validation_Results/BUW-FZJ/BUW-FZJ_B_Gasification_q50_Temp_R5.csv
Time,T_back_1
[s],[K]
0.0,291.67
2.1128,291.67
4.0496,291.67
6.1624,291.67
8.0991,291.67
10.0359,291.67
12.1487,291.67
14.0855,291.6702
16.0222,291.671
18.135,291.6737
20.0718,291.6804
22.0085,291.6951
24.1213,291.7229
26.0581,291.7671
28.1709,291.8422
30.1077,291.9423
32.0444,292.0858
34.1572,292.2761
36.094,292.5074
38.0307,292.806
40.1435,293.1682
42.0803,293.5774
44.017,294.0739
46.1299,294.644
48.0666,295.2591
50.0034,295.9761
52.1162,296.7699
54.0529,297.6393
56.1657,298.5845
58.1025,299.5578
60.0392,300.6461
62.1521,301.8055
64.0888,302.9783
66.0256,304.2688
68.1384,305.6232
70.0751,306.9755
72.0119,308.4459
74.1247,309.972
76.0614,311.4809
78.1743,313.1791
80.111,314.781
82.0478,316.4994
84.1606,318.2605
86.0973,319.9822
88.0341,321.8189
90.1469,323.6915
92.0837,325.5141
94.0204,327.4503
96.1332,329.4167
98.07,331.3239
100.0067,333.3437
102.1195,335.3889
104.0563,337.4577
106.1691,339.5491
108.1059,341.5695
110.0426,343.7013
112.1554,345.8525
114.0922,347.9271
116.0289,350.1129
118.1417,352.3154
120.0785,354.4368
122.0152,356.6693
124.1281,358.9164
126.0648,361.0788
128.0016,363.3524
130.1144,365.6395
132.0511,367.9391
134.1639,370.2507
136.1007,372.4726
138.0374,374.8066
140.1503,377.1516
142.087,379.4046
144.0238,381.7702
146.1366,384.146
148.0733,386.428
150.0101,388.8233
152.1229,391.2283
154.0596,393.5376
156.1725,396.0668
158.1092,398.3942
160.046,400.8366
162.1588,403.2883
164.0955,405.6417
166.0323,408.1108
168.1451,410.5891
170.0818,412.9681
172.0186,415.464
174.1314,417.969
176.0682,420.3734
178.0049,422.8962
180.1177,425.428
182.0545,427.969
184.1673,430.5194
186.104,432.9674
188.0408,435.5357
190.1536,438.1131
192.0904,440.5868
194.0271,443.1819
196.1399,445.7862
198.0767,448.2861
200.0134,450.9087
202.1263,453.5409
204.063,456.0676
206.1758,458.8338
208.1126,461.3784
210.0493,464.0478
212.1621,466.7266
214.0989,469.2974
216.0356,471.994
218.1485,474.7003
220.0852,477.2975
222.022,480.0224
224.1348,482.7565
226.0715,485.3804
228.0083,488.1323
230.1211,490.8931
232.0578,493.542
234.1707,496.4402
236.1074,499.1049
238.0442,501.8988
240.157,504.7012
242.0937,507.3892
244.0305,510.2068
246.1433,513.0314
248.08,515.7394
250.0168,518.5765
252.1296,521.4188
254.0664,524.1418
256.0031,526.9928
258.1159,529.8477
260.0527,532.7063
262.1655,535.5662
264.1023,538.3012
266.039,541.1584
268.1518,544.0127
270.0886,546.7384
272.0253,549.5818
274.1381,552.418
276.0749,555.123
278.0116,557.9406
280.1245,560.7423
282.0612,563.4064
284.174,566.2958
286.1108,568.9258
288.0475,571.6543
290.1603,574.3586
292.0971,576.9217
294.0338,579.5736
296.1467,582.1949
298.0834,584.6695
300.0202,587.2215
302.133,589.7385
304.0697,592.1134
306.0065,594.5631
308.1193,596.981
310.056,599.3681
312.1689,601.7287
314.1056,603.9642
316.0424,606.2843
318.1552,608.5915
320.0919,610.7928
322.0287,613.0951
324.1415,615.4069
326.0783,617.6348
328.015,619.9907
330.1278,622.3845
332.0646,624.7197
334.0013,627.2199
336.1141,629.7918
338.0509,632.4476
340.1637,635.2042
342.1005,637.951
344.0372,640.9566
346.15,644.1245
348.0868,647.3319
350.0235,650.9024
352.1363,654.7396
354.0731,658.7064
356.0098,663.2335
358.1226,668.2616
360.0594,673.6583
362.1722,680.4466
364.109,687.868
366.0457,697.5037
368.1585,710.82
370.0953,731.7217
372.032,778.0031
374.1449,824.0983
376.0816,849.5776
378.0184,866.2435
380.1312,877.1386
382.0679,884.4264
384.0047,889.9982
386.1175,894.1972
388.0542,897.5006
390.1671,900.1775
392.1038,902.3218
394.0406,904.2395
396.1534,905.9058
398.0901,907.3234
400.0269,908.6525
402.1397,909.8488
404.0764,910.8892
406.0132,911.8853
408.126,912.7999
410.0628,913.6098
412.1756,914.43
414.1123,915.1307
416.0491,915.817
418.1619,916.4612
420.0986,917.043
422.0354,917.6183
424.1482,918.1616
426.085,918.6554
428.0217,919.1474
430.1345,919.6156
432.0713,920.0433
434.008,920.4713
436.1208,920.8814
438.0576,921.2566
440.1704,921.6503
442.1072,921.9959
444.0439,922.3457
446.1567,922.6814
448.0935,922.9915
450.0302,923.3051
452.1431,923.6071
454.0798,923.8872
456.0166,924.1699
458.1294,924.4444
460.0661,924.6981
462.0029,924.9565
464.1157,925.2066
466.0524,925.4496
468.1653,925.6868
470.102,925.9094
472.0388,926.1349
474.1516,926.3574
476.0883,926.5639
478.0251,926.7742
480.1379,926.9802
482.0746,927.1719
484.0114,927.3678
486.1242,927.5582
488.061,927.7362
490.1738,927.9269
492.1105,928.0954
494.0473,928.2694
496.1601,928.4389
498.0968,928.5968
500.0,928.7566