File: PMMA/Validation_Results/BUW-FZJ/BUW-FZJ_PMMA01_Gasification_q50_Temp_R2.csv
Time,T_back_1
[s],[K]
0.0,291.2
2.112818,291.2
4.04957,291.2
6.16239,291.2
8.09914,291.205
10.0359,291.237
12.1487,291.341
14.0855,291.556
16.0222,291.94
18.135,292.51
20.0718,293.235
22.0085,294.176
24.1213,295.292
26.0581,296.507
28.1709,297.978
30.1077,299.443
32.0444,301.078
34.1572,302.805
36.094,304.529
38.0307,306.3945
40.1435,308.315
42.0803,310.195
44.017,312.195
46.12986,314.223
48.06661,316.181
50.00336,318.242
52.1162,320.308
54.0529,322.371
56.1657,324.424
58.1025,326.381
60.0392,328.424
62.1521,330.465
64.0888,332.411
66.0256,334.44
68.1384,336.46
70.0751,338.384
72.0119,340.383
74.1247,342.371
76.0614,344.26
78.1743,346.305
80.111,348.165
82.0478,350.092
84.1606,352.002
86.0973,353.811
88.0341,355.683
90.1469,357.535
92.0837,359.286
94.0204,361.094
96.13322,362.879
98.06997,364.563
100.007,366.299
102.12,368.007
104.056,369.687
106.169,371.335
108.106,372.881
110.043,374.461
112.155,376.009
114.092,377.468
116.029,378.973
118.142,380.461
120.078,381.871
122.015,383.333
124.128,384.786
126.065,386.167
128.002,387.603
130.114,389.0344
132.051,390.462
134.164,391.887
136.101,393.249
138.037,394.672
140.15,396.097
142.087,397.462
144.024,398.892
146.137,400.327
148.073,401.706
150.01,403.154
152.1229,404.6097
154.06,406.012
156.172,407.554
158.109,408.98
160.046,410.484
162.159,412.004
164.096,413.474
166.032,415.032
168.1451,416.61
170.082,418.1434
172.0186,419.773
174.131,421.433
176.068,423.054
178.005,424.784
180.118,426.542
182.054,428.326
184.1673,430.138
186.104,431.898
188.0408,433.7658
190.154,435.666
192.09,437.514
194.027,439.481
196.14,441.485
198.077,443.439
200.013,445.522
202.126,447.651
204.063,449.731
206.176,452.054
208.113,454.237
210.049,456.5773
212.162,458.982
214.099,461.349
216.036,463.899
218.148,466.536
220.085,469.148
222.022,471.987
224.135,474.957
226.072,477.93
228.008,481.177
230.1211,484.57
232.058,487.961
234.171,491.827
236.107,495.537
238.044,499.595
240.157,503.853
242.094,508.122
244.03,512.803
246.1433,517.727
248.08,522.675
250.0168,528.113
252.13,533.861
254.066,539.695
256.003,546.179
258.116,553.159
260.053,560.826
262.1655,569.68
264.102,579.132
266.039,586.896
268.152,593.167
270.089,598.347
272.025,603.032
274.138,607.116
276.075,610.611
278.012,613.907
280.124,616.885
282.061,619.502
284.174,622.136
286.111,624.382
288.048,626.596
290.16,628.702
292.097,630.634
294.034,632.589
296.147,634.497
298.083,636.292
300.02,638.1449
302.133,639.991
304.07,641.742
306.006,643.591
308.1193,645.44
310.056,647.312
312.169,649.21
314.106,651.036
316.042,652.991
318.155,654.989
320.092,656.933
322.029,659.031
324.1415,661.184
326.078,663.305
328.015,665.635
330.128,668.059
332.065,670.466
334.001,673.146
336.114,676.057
338.051,679.159
340.1637,682.527
342.1,686.1731
344.0372,690.526
346.15,695.63
348.087,701.63
350.024,709.9484
352.136,722.537
354.073,745.706
356.01,802.504
358.123,836.426
360.0594,851.208
362.172,860.518
364.109,866.238
366.046,870.751
368.159,874.366
370.095,877.273
372.032,879.903
374.145,882.219
376.082,884.212
378.018,886.1
380.131,887.8316
382.068,889.359
384.005,890.841
386.117,892.214
388.054,893.497
390.167,894.695
392.104,895.7667
394.041,896.813
396.153,897.795
398.09,898.69
400.027,899.551
402.1397,900.386
404.076,901.117
406.0132,901.865
408.126,902.55
410.063,903.18
412.176,903.843
414.112,904.409
416.049,904.961
418.1619,905.496
420.099,905.9933
422.0354,906.485
424.148,906.948
426.085,907.372
428.022,907.793
430.135,908.197
432.071,908.566
434.008,908.935
436.121,909.289
438.0576,909.612
440.17,909.951
442.107,910.25
444.044,910.548
446.157,910.837
448.093,911.102
450.03,911.368
452.143,911.626
454.08,911.863
456.017,912.102
458.129,912.333
460.066,912.547
462.003,912.763
464.116,912.972
466.052,913.152
468.165,913.348
470.102,913.527
472.039,913.711
474.152,913.911
476.088,914.074
478.025,914.242
480.1379,914.389
482.075,914.535
484.0114,914.689
486.124,914.838
488.061,914.999
490.174,915.148
492.111,915.28
494.047,915.395
496.1601,915.528
498.097,915.651
500.0,915.797