File: PMMA/Validation_Results/BUW-FZJ/BUW-FZJ_C_Gasification_q50_Temp_R3.csv
Time,T_back_1
[s],[K]
0.0,291.2
2.1128,291.1999
4.0496,291.1998
6.1624,291.1997
8.0991,291.2002
10.0359,291.2064
12.1487,291.2338
14.0855,291.3034
16.0222,291.4493
18.135,291.6959
20.0718,292.0415
22.0085,292.5267
24.1213,293.1428
26.0581,293.8509
28.1709,294.75
30.1077,295.6825
32.0444,296.7589
34.1572,297.9306
36.094,299.1311
38.0307,300.461
40.1435,301.8597
42.0803,303.254
44.017,304.7638
46.1299,306.3206
48.0666,307.8474
50.0034,309.4774
52.1162,311.1368
54.0529,312.82
56.1657,314.5225
58.1025,316.1644
60.0392,317.8906
62.1521,319.6223
64.0888,321.2797
66.0256,323.0081
68.1384,324.728
70.0751,326.3705
72.0119,328.0864
74.1247,329.8003
76.0614,331.4366
78.1743,333.2174
80.111,334.8454
82.0478,336.5417
84.1606,338.231
86.0973,339.8405
88.0341,341.5151
90.1469,343.181
92.0837,344.7655
94.0204,346.4124
96.1332,348.0485
98.07,349.603
100.0067,351.2165
102.1195,352.8182
104.0563,354.4069
106.1691,355.9819
108.1059,357.4759
110.0426,359.0233
112.1554,360.5561
114.0922,362.0074
116.0289,363.509
118.1417,364.9939
120.0785,366.3982
122.0152,367.8481
124.1281,369.2784
126.0648,370.6274
128.0016,372.0162
130.1144,373.3807
132.0511,374.721
134.1639,376.0401
136.1007,377.2873
138.0374,378.5782
140.1503,379.8568
142.087,381.0706
144.0238,382.332
146.1366,383.5863
148.0733,384.7815
150.0101,386.0264
152.1229,387.2674
154.0596,388.4518
156.1725,389.7421
158.1092,390.9244
160.046,392.161
162.1588,393.3983
164.0955,394.5835
166.0323,395.8248
168.1451,397.0703
170.0818,398.266
172.0186,399.5207
174.1314,400.7812
176.0682,401.9942
178.0049,403.2703
180.1177,404.5544
182.0545,405.8483
184.1673,407.154
186.104,408.4138
188.0408,409.7434
190.1536,411.0888
192.0904,412.3896
194.0271,413.766
196.1399,415.1617
198.0767,416.5155
200.0134,417.9528
202.1263,419.4141
204.063,420.8374
206.1758,422.4212
208.1126,423.9053
210.0493,425.4854
212.1621,427.0902
214.0989,428.649
216.0356,430.304
218.1485,431.9862
220.0852,433.6215
222.022,435.3599
224.1348,437.1298
226.0715,438.8533
228.0083,440.6884
230.1211,442.5598
232.0578,444.3862
234.1707,446.4211
236.1074,448.3276
238.0442,450.3659
240.157,452.4536
242.0937,454.4996
244.0305,456.6937
246.1433,458.9489
248.08,461.1677
250.0168,463.5578
252.1296,466.0269
254.0664,468.4709
256.0031,471.1226
258.1159,473.8902
260.0527,476.7882
262.1655,479.8178
264.1023,482.8407
266.039,486.1362
268.1518,489.5803
270.0886,493.0194
272.0253,496.7762
274.1381,500.7091
276.0749,504.6456
278.0116,508.9557
280.1245,513.4783
282.0612,518.0143
284.174,523.225
286.1108,528.254
288.0475,533.7944
290.1603,539.648
292.0971,545.6001
294.0338,552.2724
296.1467,559.5574
298.0834,567.4136
300.0202,577.0124
302.133,585.0236
304.0697,591.1777
306.0065,596.7
308.1193,601.4273
310.056,605.5753
312.1689,609.2696
314.1056,612.4542
316.0424,615.4837
318.1552,618.2506
320.0919,620.6878
322.0287,623.0694
324.1415,625.3056
326.0783,627.3271
328.015,629.3661
330.1278,631.3202
332.0646,633.1462
334.0013,635.0147
336.1141,636.8584
338.0509,638.683
340.1637,640.504
342.1005,642.2454
344.0372,644.0766
346.15,645.9142
348.0868,647.6923
350.0235,649.5812
352.1363,651.4884
354.0731,653.3495
356.0098,655.3426
358.1226,657.3743
360.0594,659.3851
362.1722,661.6303
364.109,663.7618
366.0457,666.1102
368.1585,668.5362
370.0953,670.96
372.032,673.691
374.1449,676.6288
376.0816,679.6124
378.0184,682.9977
380.1312,686.9649
382.0679,691.2068
384.0047,696.4769
386.1175,703.0409
388.0542,711.7755
390.1671,725.6145
392.1038,751.8592
394.0406,808.4916
396.1534,838.0754
398.0901,851.971
400.0269,860.7166
402.1397,866.6419
404.0764,870.9157
406.0132,874.5314
408.126,877.5544
410.0628,880.0592
412.1756,882.469
414.1123,884.4518
416.0491,886.3327
418.1619,888.0482
420.0986,889.5679
422.0354,891.0439
424.1482,892.4147
426.085,893.6335
428.0217,894.8263
430.1345,895.9355
432.0713,896.9361
434.008,897.9256
436.1208,898.8443
438.0576,899.6725
440.1704,900.5347
442.1072,901.2626
444.0439,902.0043
446.1567,902.6951
448.0935,903.3101
450.0302,903.9386
452.1431,904.5325
454.0798,905.0684
456.0166,905.6027
458.1294,906.099
460.0661,906.5626
462.0029,907.0234
464.1157,907.4641
466.0524,907.8832
468.1653,908.2834
470.102,908.6498
472.0388,909.0163
474.1516,909.3667
476.0883,909.6892
478.0251,910.011
480.1379,910.321
482.0746,910.6049
484.0114,910.8915
486.1242,911.1661
488.061,911.4193
490.1738,911.6859
492.1105,911.9208
494.0473,912.1575
496.1601,912.3866
498.0968,912.5988
500.0,912.8095