File: PMMA/Validation_Results/BUW-FZJ/BUW-FZJ_ApproachA_Gasification_q50_Temp_R1.csv
Time,T_back_1
[s],[K]
0.0,290.65
2.112818,290.65
4.04957,290.65
6.16239,290.65
8.09914,290.65
10.0359,290.65
12.1487,290.65
14.0855,290.651
16.0222,290.653
18.135,290.66
20.0718,290.675
22.0085,290.706
24.1213,290.761
26.0581,290.843
28.1709,290.976
30.1077,291.145
32.0444,291.378
34.1572,291.677
36.094,292.03
38.0307,292.473
40.1435,292.998
42.0803,293.579
44.017,294.269
46.12986,295.048
48.06661,295.875
50.00336,296.825
52.1162,297.862
54.0529,298.983
56.1657,300.189
58.1025,301.417
60.0392,302.778
62.1521,304.215
64.0888,305.658
66.0256,307.234
68.1384,308.877
70.0751,310.507
72.0119,312.271
74.1247,314.092
76.0614,315.884
78.1743,317.893
80.111,319.781
82.0478,321.8
84.1606,323.862
86.0973,325.872
88.0341,328.012
90.1469,330.189
92.0837,332.304
94.0204,334.547
96.13322,336.822
98.06997,339.027
100.007,341.359
102.12,343.72
104.056,346.106
106.169,348.519
108.106,350.849
110.043,353.307
112.155,355.789
114.092,358.183
116.029,360.708
118.142,363.253
120.078,365.706
122.015,368.29
124.128,370.894
126.065,373.403
128.002,376.044
130.114,378.704
132.051,381.381
134.164,384.078
136.101,386.673
138.037,389.404
140.15,392.153
142.087,394.798
144.024,397.581
146.137,400.381
148.073,403.076
150.01,405.91
152.1229,408.762
154.06,411.5055
156.172,414.517
158.109,417.293
160.046,420.213
162.159,423.15
164.096,425.976
166.032,428.948
168.1451,431.937
170.082,434.814
172.0186,437.838
174.131,440.879
176.068,443.806
178.005,446.883
180.118,449.978
182.054,453.0924
184.1673,456.225
186.104,459.239
188.0408,462.409
190.154,465.599
192.09,468.668
194.027,471.896
196.14,475.1457
198.077,478.274
200.013,481.565
202.126,484.878
204.063,488.068
206.176,491.573
208.113,494.808
210.049,498.216
212.162,501.65
214.099,504.959
216.036,508.444
218.148,511.958
220.085,515.346
222.022,518.918
224.135,522.52
226.072,525.994
228.008,529.656
230.1211,533.349
232.058,536.909
234.171,540.82
236.107,544.43
238.044,548.227
240.157,552.046
242.094,555.7185
244.03,559.578
246.1433,563.447
248.08,567.155
250.0168,571.037
252.13,574.924
254.066,578.643
256.003,582.526
258.116,586.402
260.053,590.267
262.1655,594.112
264.102,597.772
266.039,601.582
268.152,605.375
270.089,608.992
272.025,612.765
274.138,616.535
276.075,620.147
278.012,623.939
280.124,627.759
282.061,631.454
284.174,635.55
286.111,639.382
288.048,643.495
290.16,647.736
292.097,651.96
294.034,656.575
296.147,661.438
298.083,666.398
300.02,671.965
302.133,678.006
304.07,684.2943
306.006,691.884
308.1193,700.8854
310.056,711.708
312.169,727.077
314.106,750.151
316.042,790.726
318.155,800.699
320.092,808.62
322.029,815.219
324.1415,820.519
326.078,824.752
328.015,828.538
330.128,831.831
332.065,834.634
334.001,837.261
336.114,839.635
338.051,841.799
340.1637,843.781
342.1,845.537
344.0372,847.247
346.15,848.841
348.087,850.282
350.024,851.7
352.136,853.031
354.073,854.239
356.01,855.435
358.123,856.571
360.0594,857.6064
362.172,858.6831
364.109,859.6237
366.046,860.566
368.159,861.469
370.095,862.297
372.032,863.13
374.145,863.932
376.082,864.671
378.018,865.4173
380.131,866.137
382.068,866.8009
384.005,867.473
386.117,868.124
388.054,868.752
390.167,869.364
392.104,869.934
394.041,870.514
396.153,871.079
398.09,871.602
400.027,872.134
402.1397,872.654
404.076,873.135
406.0132,873.626
408.126,874.105
410.063,874.55
412.176,875.023
414.112,875.447
416.049,875.8788
418.1619,876.3
420.099,876.694
422.0354,877.095
424.148,877.489
426.085,877.8556
428.022,878.233
430.135,878.598
432.071,878.945
434.008,879.296
436.121,879.641
438.0576,879.966
440.17,880.31
442.107,880.621
444.044,880.942
446.157,881.25
448.093,881.547
450.03,881.847
452.143,882.142
454.08,882.421
456.017,882.706
458.129,882.984
460.066,883.248
462.003,883.5186
464.116,883.784
466.052,884.043
468.165,884.301
470.102,884.5405
472.039,884.788
474.152,885.032
476.088,885.261
478.025,885.495
480.1379,885.728
482.075,885.947
484.0114,886.1695
486.124,886.393
488.061,886.6
490.174,886.823
492.111,887.025
494.047,887.235
496.1601,887.439
498.097,887.632
500.0,887.829