File: PMMA/Validation_Results/BUW-FZJ/BUW-FZJ_PMMA01_Gasification_q50_Mass_R5.csv
Time,Mass
[s],[g]
0.0,28.3513
2.112818,28.3513
4.04957,28.351
6.16239,28.3495
8.09914,28.3441
10.0359,28.3317
12.1487,28.3165
14.0855,28.3029
16.0222,28.2882
18.135,28.2718
20.0718,28.2536
22.0085,28.2313
24.1213,28.2047
26.0581,28.1746
28.1709,28.1361
30.1077,28.0952
32.0444,28.0467
34.1572,27.9922
36.094,27.9345
38.0307,27.8686
40.1435,27.7973
42.0803,27.7242
44.017,27.6432
46.12986,27.5577
48.06661,27.472
50.00336,27.3788
52.1162,27.282
54.0529,27.1819
56.1657,27.0789
58.1025,26.9778
60.0392,26.8696
62.1521,26.7591
64.0888,26.6513
66.0256,26.5367
68.1384,26.4202
70.0751,26.3071
72.0119,26.1873
74.1247,26.066
76.0614,25.9487
78.1743,25.8194
80.111,25.6996
82.0478,25.5733
84.1606,25.4459
86.0973,25.3231
88.0341,25.1937
90.1469,25.0634
92.0837,24.938
94.0204,24.806
96.13322,24.6733
98.06997,24.5457
100.007,24.4115
102.12,24.2766
104.056,24.1411
106.169,24.0049
108.106,23.8741
110.043,23.7368
112.155,23.5989
114.092,23.4666
116.029,23.3276
118.142,23.1882
120.078,23.0544
122.015,22.914
124.128,22.7731
126.065,22.638
128.002,22.4963
130.114,22.3542
132.051,22.2117
134.164,22.0688
136.101,21.9317
138.037,21.7881
140.15,21.6441
142.087,21.506
144.024,21.3613
146.137,21.2163
148.073,21.0773
150.01,20.9317
152.1229,20.7857
154.06,20.6458
156.172,20.4929
158.109,20.3525
160.046,20.2054
162.159,20.0581
164.096,19.9169
166.032,19.769
168.1451,19.6209
170.082,19.479
172.0186,19.3305
174.131,19.1817
176.068,19.0391
178.005,18.8899
180.118,18.7405
182.054,18.5908
184.1673,18.441
186.104,18.2974
188.0408,18.1472
190.154,17.9968
192.09,17.8527
194.027,17.7019
196.14,17.551
198.077,17.4064
200.013,17.2551
202.126,17.1036
204.063,16.9586
206.176,16.8002
208.113,16.6548
210.049,16.5027
212.162,16.3505
214.099,16.2047
216.036,16.0521
218.148,15.8993
220.085,15.7531
222.022,15.6001
224.135,15.447
226.072,15.3003
228.008,15.1468
230.1211,14.9932
232.058,14.8462
234.171,14.6856
236.107,14.5382
238.044,14.384
240.157,14.2297
242.094,14.0819
244.03,13.9273
246.1433,13.7725
248.08,13.6243
250.0168,13.4692
252.13,13.314
254.066,13.1653
256.003,13.0098
258.116,12.854
260.053,12.6981
262.1655,12.5421
264.102,12.3927
266.039,12.2363
268.152,12.07977
270.089,11.9299
272.025,11.773
274.138,11.6159
276.075,11.4655
278.012,11.3081
280.124,11.1504
282.061,10.9994
284.174,10.8342
286.111,10.68246
288.048,10.5232
290.16,10.3632
292.097,10.2093
294.034,10.0471
296.147,9.88365
298.083,9.725739
300.02,9.558885
302.133,9.38991
304.07,9.22607
306.006,9.05219
308.1193,8.87521
310.056,8.69465
312.169,8.50993
314.106,8.32994
316.042,8.13805
318.155,7.9422
320.092,7.75131
322.029,7.54828
324.1415,7.34203
326.078,7.14209
328.015,6.93066
330.128,6.71717
332.065,6.51134
334.001,6.29482
336.114,6.07718
338.051,5.85872
340.1637,5.63968
342.1,5.42979
344.0372,5.21015
346.15,4.9905
348.087,4.780481
350.024,4.56118
352.136,4.34227
354.073,4.13338
356.01,3.91569
358.123,3.69877
360.0594,3.49219
362.172,3.26802
364.109,3.063685
366.046,2.85155
368.159,2.64099
370.095,2.4412
372.032,2.23436
374.145,2.02978
376.082,1.83629
378.018,1.63669
380.131,1.44026
382.068,1.25556
384.005,1.066
386.117,0.881008
388.054,0.701348
390.167,0.52825
392.104,0.370331
394.041,0.216349
396.153,0.083183
398.09,0.006361
400.027,3.46945e-15
402.1397,3.46945e-15
404.076,3.46945e-15
406.0132,3.46945e-15
408.126,3.46945e-15
410.063,3.46945e-15
412.176,3.46945e-15
414.112,3.46945e-15
416.049,3.46945e-15
418.1619,3.46945e-15
420.099,3.46945e-15
422.0354,3.46945e-15
424.148,3.46945e-15
426.085,3.46945e-15
428.022,3.46945e-15
430.135,3.46945e-15
432.071,3.46945e-15
434.008,3.46945e-15
436.121,3.46945e-15
438.0576,3.46945e-15
440.17,3.46945e-15
442.107,3.46945e-15
444.044,3.46945e-15
446.157,3.46945e-15
448.093,3.46945e-15
450.03,3.46945e-15
452.143,3.46945e-15
454.08,3.46945e-15
456.017,3.46945e-15
458.129,3.46945e-15
460.066,3.46945e-15
462.003,3.46945e-15
464.116,3.46945e-15
466.052,3.46945e-15
468.165,3.46945e-15
470.102,3.46945e-15
472.039,3.46945e-15
474.152,3.46945e-15
476.088,3.46945e-15
478.025,3.46945e-15
480.1379,3.46945e-15
482.075,3.46945e-15
484.0114,3.46945e-15
486.124,3.46945e-15
488.061,3.46945e-15
490.174,3.46945e-15
492.111,3.46945e-15
494.047,3.46945e-15
496.1601,3.46945e-15
498.097,3.46945e-15
500.0,3.46945e-15