File: PMMA/Validation_Results/BUW-FZJ/BUW-FZJ_A_Gasification_q50_MLR_R3.csv
Time,MLR
[s],[g/m2/s]
0.0,0.0
2.1128,0.0004
4.0496,0.0048
6.1624,0.0215
8.0991,0.0586
10.0359,0.1287
12.1487,0.2361
14.0855,0.3702
16.0222,0.5319
18.135,0.7004
20.0718,0.8594
22.0085,1.0292
24.1213,1.227
26.0581,1.476
28.1709,1.8536
30.1077,2.3234
32.0444,2.952
34.1572,3.7149
36.094,4.5458
38.0307,5.4842
40.1435,6.453
42.0803,7.3727
44.017,8.2987
46.1299,9.169
48.0666,9.9407
50.0034,10.6809
52.1162,11.3541
54.0529,11.9652
56.1657,12.5188
58.1025,13.0001
60.0392,13.4583
62.1521,13.8749
64.0888,14.2391
66.0256,14.5877
68.1384,14.9066
70.0751,15.187
72.0119,15.4568
74.1247,15.7048
76.0614,15.9238
78.1743,16.1442
80.111,16.3307
82.0478,16.5112
84.1606,16.6781
86.0973,16.8262
88.0341,16.9701
90.1469,17.1033
92.0837,17.2218
94.0204,17.3371
96.1332,17.4444
98.07,17.54
100.0067,17.6333
102.1195,17.7203
104.0563,17.8015
106.1691,17.8867
108.1059,17.9572
110.0426,18.0281
112.1554,18.0987
114.0922,18.1612
116.0289,18.2255
118.1417,18.287
120.0785,18.3435
122.0152,18.3996
124.1281,18.4551
126.0648,18.5061
128.0016,18.5589
130.1144,18.6115
132.0511,18.6624
134.1639,18.7136
136.1007,18.7615
138.0374,18.8121
140.1503,18.8637
142.087,18.9104
144.0238,18.9598
146.1366,19.0129
148.0733,19.0607
150.0101,19.1104
152.1229,19.1639
154.0596,19.2152
156.1725,19.2694
158.1092,19.3241
160.046,19.3787
162.1588,19.4349
164.0955,19.4902
166.0323,19.5465
168.1451,19.609
170.0818,19.6681
172.0186,19.7324
174.1314,19.7956
176.0682,19.8591
178.0049,19.93
180.1177,20.0001
182.0545,20.071
184.1673,20.143
186.104,20.2122
188.0408,20.2884
190.1536,20.3701
192.0904,20.4477
194.0271,20.5301
196.1399,20.6131
198.0767,20.7001
200.0134,20.7891
202.1263,20.8834
204.063,20.9727
206.1758,21.0753
208.1126,21.1679
210.0493,21.2698
212.1621,21.3758
214.0989,21.4768
216.0356,21.5831
218.1485,21.6973
220.0852,21.8065
222.022,21.9248
224.1348,22.0413
226.0715,22.1582
228.0083,22.2825
230.1211,22.4105
232.0578,22.5466
234.1707,22.6807
236.1074,22.7995
238.0442,22.9328
240.157,23.0711
242.0937,23.2082
244.0305,23.3532
246.1433,23.503
248.08,23.6474
250.0168,23.8051
252.1296,23.9608
254.0664,24.1228
256.0031,24.2938
258.1159,24.4731
260.0527,24.6617
262.1655,24.8498
264.1023,25.0339
266.039,25.2364
268.1518,25.4601
270.0886,25.6769
272.0253,25.9156
274.1381,26.1611
276.0749,26.4154
278.0116,26.6844
280.1245,26.9955
282.0612,27.3056
284.174,27.6398
286.1108,27.9807
288.0475,28.3418
290.1603,28.7166
292.0971,29.0806
294.0338,29.487
296.1467,29.8726
298.0834,30.2585
300.0202,30.6631
302.133,31.0567
304.0697,31.4344
306.0065,31.8103
308.1193,32.1883
310.056,32.5337
312.1689,32.8647
314.1056,33.1498
316.0424,33.4448
318.1552,33.7094
320.0919,33.9361
322.0287,34.1584
324.1415,34.3267
326.0783,34.4463
328.015,34.5187
330.1278,34.483
332.0646,34.4796
334.0013,34.2296
336.1141,33.9295
338.0509,33.523
340.1637,32.9868
342.1005,32.3373
344.0372,30.8897
346.15,28.6672
348.0868,24.785
350.0235,10.2258
352.1363,0.0131
354.0731,0.0
356.0098,0.0
358.1226,0.0
360.0594,0.0
362.1722,0.0
364.109,0.0
366.0457,0.0
368.1585,0.0
370.0953,0.0
372.032,0.0
374.1449,0.0
376.0816,0.0
378.0184,0.0
380.1312,0.0
382.0679,0.0
384.0047,0.0
386.1175,0.0
388.0542,0.0
390.1671,0.0
392.1038,0.0
394.0406,0.0
396.1534,0.0
398.0901,0.0
400.0269,0.0
402.1397,0.0
404.0764,0.0
406.0132,0.0
408.126,0.0
410.0628,0.0
412.1756,0.0
414.1123,0.0
416.0491,0.0
418.1619,0.0
420.0986,0.0
422.0354,0.0
424.1482,0.0
426.085,0.0
428.0217,0.0
430.1345,0.0
432.0713,0.0
434.008,0.0
436.1208,0.0
438.0576,0.0
440.1704,0.0
442.1072,0.0
444.0439,0.0
446.1567,0.0
448.0935,0.0
450.0302,0.0
452.1431,0.0
454.0798,0.0
456.0166,0.0
458.1294,0.0
460.0661,0.0
462.0029,0.0
464.1157,0.0
466.0524,0.0
468.1653,0.0
470.102,0.0
472.0388,0.0
474.1516,0.0
476.0883,0.0
478.0251,0.0
480.1379,0.0
482.0746,0.0
484.0114,0.0
486.1242,0.0
488.061,0.0
490.1738,0.0
492.1105,0.0
494.0473,0.0
496.1601,0.0
498.0968,0.0
500.0,0.0