File: PMMA/Validation_Results/BUW-FZJ/BUW-FZJ_ApproachB_Gasification_q50_Temp_R3.csv
Time,T_back_1
[s],[K]
0.0,291.2
2.112818,291.2
4.04957,291.2
6.16239,291.2
8.09914,291.2
10.0359,291.2
12.1487,291.2
14.0855,291.2
16.0222,291.202
18.135,291.206
20.0718,291.215
22.0085,291.235
24.1213,291.272
26.0581,291.329
28.1709,291.425
30.1077,291.55
32.0444,291.727
34.1572,291.959
36.094,292.237
38.0307,292.592
40.1435,293.019
42.0803,293.498
44.017,294.074
46.12986,294.731
48.06661,295.436
50.00336,296.252
52.1162,297.151
54.0529,298.13
56.1657,299.189
58.1025,300.276
60.0392,301.485
62.1521,302.769
64.0888,304.062
66.0256,305.481
68.1384,306.964
70.0751,308.441
72.0119,310.042
74.1247,311.7
76.0614,313.334
78.1743,315.169
80.111,316.895
82.0478,318.743
84.1606,320.633
86.0973,322.477
88.0341,324.441
90.1469,326.439
92.0837,328.381
94.0204,330.441
96.13322,332.529
98.06997,334.551
100.007,336.69
102.12,338.853
104.056,341.039
106.169,343.245
108.106,345.374
110.043,347.618
112.155,349.88
114.092,352.06
116.029,354.354
118.142,356.664
120.078,358.886
122.015,361.224
124.128,363.574
126.065,365.835
128.002,368.21
130.114,370.598
132.051,372.996
134.164,375.406
136.101,377.721
138.037,380.152
140.15,382.592
142.087,384.935
144.024,387.395
146.137,389.863
148.073,392.233
150.01,394.72
152.1229,397.215
154.06,399.61
156.172,402.233
158.109,404.645
160.046,407.175
162.159,409.714
164.096,412.15
166.032,414.705
168.1451,417.268
170.082,419.728
172.0186,422.309
174.131,424.897
176.068,427.382
178.005,429.987
180.118,432.601
182.054,435.224
184.1673,437.856
186.104,440.381
188.0408,443.03
190.154,445.687
192.09,448.237
194.027,450.911
196.14,453.593
198.077,456.168
200.013,458.868
202.126,461.577
204.063,464.176
206.176,467.022
208.113,469.638
210.049,472.382
212.162,475.135
214.099,477.776
216.036,480.545
218.148,483.324
220.085,485.989
222.022,488.785
224.135,491.5884
226.072,494.278
228.008,497.097
230.1211,499.925
232.058,502.636
234.171,505.601
236.107,508.326
238.044,511.181
240.157,514.043
242.094,516.786
244.03,519.66
246.1433,522.538
248.08,525.295
250.0168,528.18
252.13,531.068
254.066,533.831
256.003,536.72
258.116,539.608
260.053,542.492
262.1655,545.374
264.102,548.122
266.039,550.989
268.152,553.847
270.089,556.572
272.025,559.406
274.138,562.224
276.075,564.903
278.012,567.685
280.124,570.445
282.061,573.064
284.174,575.893
286.111,578.46
288.048,581.115
290.16,583.735
292.097,586.207
294.034,588.756
296.147,591.269
298.083,593.64
300.02,596.085
302.133,598.499
304.07,600.78
306.006,603.141
308.1193,605.479
310.056,607.803
312.169,610.118
314.106,612.33
316.042,614.65
318.155,616.983
320.092,619.239
322.029,621.629
324.1415,624.065
326.078,626.448
328.015,629.006
330.128,631.645
332.065,634.258
334.001,637.099
336.114,640.071
338.051,643.197
340.1637,646.5074
342.1,649.872
344.0372,653.638
346.15,657.707
348.087,661.947
350.024,666.833
352.136,672.313
354.073,678.296
356.01,685.652
358.123,694.689
360.0594,706.182
362.172,725.778
364.109,763.255
366.046,815.778
368.159,845.801
370.095,863.3503
372.032,875.315
374.145,883.459
376.082,889.093
378.018,893.532
380.131,896.983
382.068,899.655
384.005,901.982
386.117,903.953
388.054,905.662
390.167,907.17
392.104,908.463
394.041,909.682
396.153,910.787
398.09,911.753
400.027,912.682
402.1397,913.539
404.076,914.3014
406.0132,915.044
408.126,915.738
410.063,916.362
412.176,917.003
414.112,917.557
416.049,918.106
418.1619,918.626
420.099,919.1
422.0354,919.573
424.148,920.023
426.085,920.435
428.022,920.848
430.135,921.243
432.071,921.606
434.008,921.971
436.121,922.323
438.0576,922.646
440.17,922.986
442.107,923.287
444.044,923.591
446.157,923.885
448.093,924.157
450.03,924.433
452.143,924.7
454.08,924.948
456.017,925.199
458.129,925.443
460.066,925.67
462.003,925.904
464.116,926.13
466.052,926.353
468.165,926.57
470.102,926.772
472.039,926.978
474.152,927.179
476.088,927.368
478.025,927.558
480.1379,927.745
482.075,927.9204
484.0114,928.098
486.124,928.272
488.061,928.435
490.174,928.608
492.111,928.763
494.047,928.922
496.1601,929.078
498.097,929.223
500.0,929.371