File: PMMA/Validation_Results/BUW-FZJ/BUW-FZJ_ApproachB_Gasification_q50_Mass_R4.csv
Time,Mass
[s],[g]
0.0,25.5512
2.112818,25.5512
4.04957,25.5512
6.16239,25.5512
8.09914,25.5512
10.0359,25.5512
12.1487,25.5512
14.0855,25.55115
16.0222,25.551
18.135,25.5507
20.0718,25.55
22.0085,25.5484
24.1213,25.54506
26.0581,25.5393
28.1709,25.5288
30.1077,25.5138
32.0444,25.4914
34.1572,25.4611
36.094,25.4245
38.0307,25.3784
40.1435,25.3246
42.0803,25.2665
44.017,25.1996
46.12986,25.127
48.06661,25.0527
50.00336,24.9706
52.1162,24.8843
54.0529,24.7943
56.1657,24.7008
58.1025,24.6086
60.0392,24.5094
62.1521,24.4075
64.0888,24.3079
66.0256,24.2016
68.1384,24.0933
70.0751,23.9879
72.0119,23.876
74.1247,23.7625
76.0614,23.6524
78.1743,23.5309
80.111,23.4181
82.0478,23.299
84.1606,23.1787
86.0973,23.0626
88.0341,22.9401
90.1469,22.8166
92.0837,22.69755
94.0204,22.5722
96.13322,22.4458
98.06997,22.3242
100.007,22.1962
102.12,22.0674
104.056,21.9377
106.169,21.8073
108.106,21.6818
110.043,21.5499
112.155,21.4172
114.092,21.2896
116.029,21.1555
118.142,21.0206
120.078,20.8908
122.015,20.7545
124.128,20.6173
126.065,20.4854
128.002,20.3467
130.114,20.2073
132.051,20.067
134.164,19.926
136.101,19.7904
138.037,19.6478
140.15,19.5044
142.087,19.3664
144.024,19.2214
146.137,19.0755
148.073,18.9352
150.01,18.7877
152.1229,18.6394
154.06,18.4967
156.172,18.3401
158.109,18.1958
160.046,18.044
162.159,17.8913
164.096,17.7444
166.032,17.59
168.1451,17.4347
170.082,17.2853
172.0186,17.1281
174.131,16.97
176.068,16.8179
178.005,16.6579
180.118,16.4969
182.054,16.3349
184.1673,16.1719
186.104,16.015
188.0408,15.85
190.154,15.6839
192.09,15.5241
194.027,15.3559
196.14,15.1866
198.077,15.0236
200.013,14.852
202.126,14.6793
204.063,14.513
206.176,14.3303
208.113,14.1616
210.049,13.9841
212.162,13.8052
214.099,13.633
216.036,13.4515
218.148,13.2687
220.085,13.0925
222.022,12.907
224.135,12.7199
226.072,12.5396
228.008,12.3496
230.1211,12.1581
232.058,11.9734
234.171,11.7702
236.107,11.5824
238.044,11.3843
240.157,11.1844
242.094,10.9915
244.03,10.7881
246.1433,10.5828
248.08,10.3847
250.0168,10.1756
252.13,9.96451
254.066,9.76072
256.003,9.54566
258.116,9.3285
260.053,9.10926
262.1655,8.88788
264.102,8.67415
266.039,8.44864
268.152,8.220994
270.089,8.0013
272.025,7.76961
274.138,7.5359
276.075,7.31052
278.012,7.07304
280.124,6.833703
282.061,6.60314
284.174,6.34986
286.111,6.11617
288.048,5.870362
290.16,5.62312
292.097,5.38538
294.034,5.13559
296.147,4.88461
298.083,4.64348
300.02,4.39038
302.133,4.13629
304.07,3.8924
306.006,3.63659
308.1193,3.38003
310.056,3.12282
312.169,2.86505
314.106,2.61809
316.042,2.35966
318.155,2.10119
320.092,1.85421
322.029,1.59665
324.1415,1.34041
326.078,1.09733
328.015,0.846775
330.128,0.60252
332.065,0.37961
334.001,0.169066
336.114,0.021626
338.051,0.0
340.1637,0.0
342.1,0.0
344.0372,0.0
346.15,0.0
348.087,0.0
350.024,0.0
352.136,0.0
354.073,0.0
356.01,0.0
358.123,0.0
360.0594,0.0
362.172,0.0
364.109,0.0
366.046,0.0
368.159,0.0
370.095,0.0
372.032,0.0
374.145,0.0
376.082,0.0
378.018,0.0
380.131,0.0
382.068,0.0
384.005,0.0
386.117,0.0
388.054,0.0
390.167,0.0
392.104,0.0
394.041,0.0
396.153,0.0
398.09,0.0
400.027,0.0
402.1397,0.0
404.076,0.0
406.0132,0.0
408.126,0.0
410.063,0.0
412.176,0.0
414.112,0.0
416.049,0.0
418.1619,0.0
420.099,0.0
422.0354,0.0
424.148,0.0
426.085,0.0
428.022,0.0
430.135,0.0
432.071,0.0
434.008,0.0
436.121,0.0
438.0576,0.0
440.17,0.0
442.107,0.0
444.044,0.0
446.157,0.0
448.093,0.0
450.03,0.0
452.143,0.0
454.08,0.0
456.017,0.0
458.129,0.0
460.066,0.0
462.003,0.0
464.116,0.0
466.052,0.0
468.165,0.0
470.102,0.0
472.039,0.0
474.152,0.0
476.088,0.0
478.025,0.0
480.1379,0.0
482.075,0.0
484.0114,0.0
486.124,0.0
488.061,0.0
490.174,0.0
492.111,0.0
494.047,0.0
496.1601,0.0
498.097,0.0
500.0,0.0