File: PMMA/Validation_Results/BUW-FZJ/BUW-FZJ-B_Gasification_q50_Temp_R2.csv
Time,T_back_1
[s],[K]
0.0,291.2
2.1128,291.2
4.0496,291.2
6.1624,291.2
8.0991,291.2
10.0359,291.2
12.1487,291.2005
14.0855,291.2029
16.0222,291.2112
18.135,291.2326
20.0718,291.2745
22.0085,291.3525
24.1213,291.479
26.0581,291.6573
28.1709,291.9292
30.1077,292.2598
32.0444,292.6977
34.1572,293.2388
36.094,293.8572
38.0307,294.6131
40.1435,295.4846
42.0803,296.4262
44.017,297.5233
46.1299,298.7354
48.0666,299.9993
50.0034,301.4266
52.1162,302.9597
54.0529,304.5926
56.1657,306.3219
58.1025,308.0605
60.0392,309.9614
62.1521,311.943
64.0888,313.9081
66.0256,316.0305
68.1384,318.2179
70.0751,320.3659
72.0119,322.6653
74.1247,325.0157
76.0614,327.3074
78.1743,329.8521
80.111,332.2222
82.0478,334.7349
84.1606,337.2805
86.0973,339.7434
88.0341,342.3449
90.1469,344.9716
92.0837,347.5053
94.0204,350.1747
96.1332,352.8633
98.07,355.4513
100.0067,358.1726
102.1195,360.9087
104.0563,363.6583
106.1691,366.4205
108.1059,369.0733
110.0426,371.8571
112.1554,374.6508
114.0922,377.3317
116.0289,380.1427
118.1417,382.9618
120.0785,385.6652
122.0152,388.4995
124.1281,391.3403
126.0648,394.0635
128.0016,396.9165
130.1144,399.7755
132.0511,402.64
134.1639,405.5101
136.1007,408.2604
138.0374,411.1406
140.1503,414.0259
142.087,416.7904
144.0238,419.6855
146.1366,422.5857
148.0733,425.3643
150.0101,428.274
152.1229,431.1886
154.0596,433.9812
156.1725,437.0332
158.1092,439.8355
160.046,442.77
162.1588,445.7097
164.0955,448.526
166.0323,451.4752
168.1451,454.4296
170.0818,457.2603
172.0186,460.2247
174.1314,463.1944
176.0682,466.04
178.0049,469.0203
180.1177,472.006
182.0545,474.9969
184.1673,477.9929
186.104,480.8636
188.0408,483.8696
190.1536,486.8804
192.0904,489.7645
194.0271,492.7846
196.1399,495.8094
198.0767,498.7073
200.0134,501.741
202.1263,504.7786
204.063,507.6876
206.1758,510.8642
208.1126,513.7783
210.0493,516.8271
212.1621,519.8778
214.0989,522.7974
216.0356,525.8508
218.1485,528.9037
220.0852,531.8226
222.022,534.8721
224.1348,537.9167
226.0715,540.8223
228.0083,543.8527
230.1211,546.8736
232.0578,549.7532
234.1707,552.8822
236.1074,555.7379
238.0442,558.7075
240.157,561.6549
242.0937,564.4535
244.0305,567.357
246.1433,570.2343
248.08,572.9606
250.0168,575.7816
252.1296,578.5693
254.0664,581.2035
256.0031,583.9216
258.1159,586.5968
260.0527,589.2306
262.1655,591.8233
264.1023,594.2659
266.039,596.7822
268.1518,599.2626
270.0886,601.6043
272.0253,604.0254
274.1381,606.4236
276.0749,608.702
278.0116,611.0742
280.1245,613.4455
282.0612,615.7209
284.174,618.2208
286.1108,620.5387
288.0475,623.0002
290.1603,625.5127
292.0971,627.9753
294.0338,630.624
296.1467,633.3643
298.0834,636.0845
300.0202,639.0497
302.133,642.1649
304.0697,645.3057
306.0065,648.7894
308.1193,652.5186
310.056,656.5381
312.1689,660.9184
314.1056,665.5219
316.0424,670.8882
318.1552,677.0056
320.0919,683.8407
322.0287,692.5357
324.1415,703.9052
326.0783,720.1329
328.015,753.721
330.1278,811.3567
332.0646,843.9031
334.0013,863.6631
336.1141,875.9525
338.0509,884.1919
340.1637,890.0099
342.1005,894.1783
344.0372,897.5786
346.15,900.3121
348.0868,902.4896
350.0235,904.4307
352.1363,906.1099
354.0731,907.536
356.0098,908.873
358.1226,910.0761
360.0594,911.1226
362.1722,912.1646
364.109,913.0414
366.0457,913.89
368.1585,914.6768
370.0953,915.3795
372.032,916.0678
374.1449,916.7131
376.0816,917.2953
378.0184,917.8706
380.1312,918.415
382.0679,918.9096
384.0047,919.4017
386.1175,919.8705
388.0542,920.3172
390.1671,920.7441
392.1038,921.1355
394.0406,921.5278
396.1534,921.9046
398.0901,922.2501
400.0269,922.5999
402.1397,922.9342
404.0764,923.2446
406.0132,923.5575
408.126,923.859
410.0628,924.1391
412.1756,924.4336
414.1123,924.6958
416.0491,924.9604
418.1619,925.2181
420.0986,925.4563
422.0354,925.6991
424.1482,925.9351
426.085,926.1555
428.0217,926.381
430.1345,926.6025
432.0713,926.8078
434.008,927.0179
436.1208,927.2235
438.0576,927.4147
440.1704,927.6186
442.1072,927.7996
444.0439,927.9863
446.1567,928.1678
448.0935,928.3365
450.0302,928.5098
452.1431,928.6793
454.0798,928.8365
456.0166,928.9983
458.1294,929.1569
460.0661,929.3044
462.0029,929.4554
464.1157,929.6039
466.0524,929.7483
468.1653,929.8908
470.102,930.0245
472.0388,930.161
474.1516,930.2938
476.0883,930.4195
478.0251,930.5494
480.1379,930.676
482.0746,930.7944
484.0114,930.9163
486.1242,931.0357
488.061,931.1488
490.1738,931.2694
492.1105,931.3781
494.0473,931.4906
496.1601,931.6006
498.0968,931.7037
500.0,931.8088