File: PMMA/Validation_Results/BUW-FZJ/BUW-FZJ_Gasification_q50_Temp_Kaowool.csv
Time,Temperature_5-72mm,Temperature_11-44mm,Temperature_17-16mm
0.0,290.65,290.65,290.65
5.106,290.6601,290.65,290.65
10.0359,292.3809,290.65,290.65
15.1419,300.7531,290.6516,290.65
20.0718,315.258,290.6797,290.65
25.0017,333.6622,290.8338,290.6499
30.1077,353.5531,291.2755,290.65
35.0376,373.626,292.1591,290.6522
40.1435,393.1923,293.5874,290.6616
45.0735,411.6095,295.5598,290.6868
50.0034,429.4033,298.1389,290.7419
55.1093,446.2005,301.2563,290.8428
60.0392,462.0222,304.8539,291.0061
65.1452,476.9114,308.8687,291.248
70.0751,490.6879,313.1565,291.576
75.005,503.9044,317.8102,292.013
80.111,516.3665,322.7007,292.5631
85.0409,528.134,327.7778,293.2317
90.1469,539.2385,332.9985,294.0226
95.0768,549.4371,338.2306,294.9192
100.0067,559.1416,343.6295,295.9528
105.1127,568.228,349.0751,297.106
110.0426,576.7573,354.5441,298.3748
115.1486,584.7783,360.0173,299.7548
120.0785,592.2091,365.3827,301.2134
125.0084,599.3533,370.8187,302.7971
130.1144,606.1117,376.218,304.4747
135.0443,612.5151,381.5718,306.24
140.1503,618.5929,386.873,308.0867
145.0802,624.2712,392.0245,309.9743
150.0101,629.7766,397.2058,311.9643
155.1161,635.0247,402.3207,314.018
160.046,640.0352,407.3667,316.1296
165.1519,644.8236,412.3415,318.2938
170.0818,649.3276,417.1585,320.4665
175.0118,653.7221,421.9886,322.7203
180.1177,657.9359,426.7447,325.0126
185.0476,661.9823,431.4266,327.339
190.1536,665.8709,436.0342,329.6956
195.0835,669.5476,440.4892,332.0367
200.0134,673.1524,444.9511,334.4424
205.1194,676.6256,449.3403,336.868
210.0493,679.9756,453.6578,339.3104
215.1553,683.2094,457.9043,341.7671
220.0852,686.2796,462.0083,344.1919
225.0151,689.3012,466.1175,346.6692
230.1211,692.2244,470.1591,349.1535
235.051,695.0539,474.1343,351.643
240.157,697.7949,478.0443,354.1356
245.0869,700.4051,481.8234,356.5861
250.0168,702.9834,485.608,359.0802
255.1228,705.484,489.3311,361.5729
260.0527,707.9129,492.9941,364.0628
265.1587,710.2722,496.5981,366.5487
270.0886,712.5255,500.0828,368.9861
275.0185,714.7568,503.5739,371.461
280.1245,716.9279,507.0098,373.9288
285.0544,719.0413,510.3919,376.3888
290.1603,721.0992,513.7211,378.8402
295.0903,723.0692,516.9418,381.2397
300.0202,725.0245,520.1699,383.6722
305.1261,726.9305,523.3489,386.0944
310.056,728.7892,526.4796,388.5058
315.162,730.603,529.5633,390.9058
320.0919,732.3445,532.5483,393.2523
325.0218,734.0778,535.5393,395.6288
330.1278,735.7642,538.4749,397.993
335.0577,737.391,541.3049,400.3033
340.1637,739.0347,544.1816,402.6829
345.0936,740.5874,546.9084,404.9676
350.0235,742.1298,549.6343,407.2798
355.1295,743.6478,552.3103,409.5784
360.0594,745.0993,554.8929,411.8233
365.1654,746.578,557.521,414.1343
370.0953,747.9714,560.0133,416.3518
375.0252,749.3649,562.5076,418.595
380.1312,750.7288,564.958,420.8239
385.0611,752.0413,567.3259,422.9998
390.1671,753.3767,569.7368,425.2389
395.097,754.6403,572.0254,427.3866
400.0269,755.9012,574.3173,429.5583
405.1329,757.1395,576.5717,431.7155
410.0628,758.3341,578.7509,433.8207
415.1687,759.5484,580.9713,435.9863
420.0986,760.6992,583.0818,438.063
425.0286,761.8498,585.1966,440.1623
430.1345,762.98,587.2783,442.2471
435.0644,764.0717,589.2921,444.2811
440.1704,765.1827,591.3465,446.373
445.1003,766.2374,593.2997,448.3785
450.0302,767.2928,595.2584,450.4055
455.1362,768.3309,597.1878,452.418
460.0661,769.334,599.0557,454.3812
465.1721,770.3558,600.9622,456.3998
470.102,771.3269,602.7767,458.3347
475.0319,772.2996,604.5972,460.2899
480.1379,773.2568,606.3919,462.2309
485.0678,774.1831,608.1297,464.1239
490.1738,775.1273,609.9053,466.0701
495.1037,776.0253,611.5959,467.9352
500.0336,776.926,613.2931,469.8198
505.1396,777.8131,614.9668,471.6902
510.0695,778.672,616.5894,473.5142
515.1755,779.5484,618.2473,475.3891
520.1054,780.3823,619.827,477.1858
525.0353,781.2192,621.414,479.0008
530.1413,782.0439,622.9794,480.802
535.0712,782.8433,624.4981,482.5583
540.0011,783.6457,626.0237,484.3324
545.107,784.4369,627.5304,486.0929
550.037,785.2172,629.0171,487.8399
555.1429,785.987,630.4857,489.5733
560.0728,786.7335,631.9104,491.2634
565.0028,787.4834,633.3422,492.9703
570.1087,788.2227,634.7564,494.664
575.0386,788.9529,636.1533,496.3444
580.1446,789.6735,637.5332,498.0117
585.0745,790.3727,638.8724,499.637
590.0044,791.075,640.2189,501.2784
595.1104,791.7684,641.5496,502.9068
600.0403,792.4536,642.8641,504.5224
605.1463,793.1298,644.1628,506.1251
610.0762,793.786,645.4242,507.6873
615.0061,794.4461,646.6929,509.2648
620.1121,795.0979,647.9465,510.8296
625.042,795.7419,649.1856,512.3819
630.148,796.3784,650.4106,513.9217
635.0779,796.9959,651.6002,515.4224
640.0078,797.6175,652.797,516.9376
645.1138,798.2312,653.9803,518.4405
650.0437,798.8381,655.1501,519.9312
655.1497,799.438,656.3068,521.4097
660.0796,800.0205,657.4304,522.8505
665.0095,800.6068,658.561,524.3051
670.1154,801.186,659.6791,525.7477
675.0454,801.7589,660.7847,527.1784
680.1513,802.3255,661.8779,528.5974
685.0812,802.8756,662.9403,529.9799
690.0112,803.4296,664.0098,531.3756
695.1171,803.9774,665.0674,532.7597
700.047,804.5189,666.1134,534.1319
705.153,805.0548,667.1479,535.4909
710.0829,805.5752,668.1534,536.8119
715.0128,806.0993,669.1657,538.143
720.1188,806.6178,670.1671,539.4603
725.0487,807.1304,671.1575,540.7638
730.1547,807.638,672.1375,542.054
735.0846,808.1308,673.0901,543.3085
740.0145,808.6276,674.0494,544.5725
745.1205,809.1184,674.9979,545.8229
750.0504,809.6052,675.9365,547.0607
755.1564,810.0852,676.8653,548.2856
760.0863,810.5533,677.7676,549.4767
765.0162,811.0236,678.6767,550.6764
770.1222,811.49,679.5768,551.8638
775.0521,811.9508,680.4668,553.0388
780.1581,812.4073,681.3469,554.2015
785.088,812.8513,682.2033,555.3322
790.0179,813.2984,683.0653,556.4713
795.1238,813.7412,683.9186,557.5982
800.0538,814.1795,684.7628,558.7135
805.1597,814.6134,685.5984,559.8174
810.0896,815.0354,686.4107,560.8907
815.0196,815.4608,687.2288,561.9718
820.1255,815.8819,688.0383,563.0416
825.0554,816.2987,688.8396,564.1003
830.1614,816.7114,689.6323,565.148
835.0913,817.113,690.4034,566.1666
840.0212,817.5177,691.18,567.1928
845.1272,817.9182,691.9484,568.2082
850.0571,818.308,692.6956,569.1954
855.1631,818.7076,693.4619,570.2074
860.093,819.0897,694.1936,571.1742
865.0229,819.4749,694.9308,572.1481
870.1289,819.8561,695.6605,573.1118
875.0588,820.2271,696.37,574.0487
880.1648,820.6076,697.0974,575.009
885.0947,820.9713,697.7923,575.9266
890.0246,821.3378,698.4926,576.8507
895.1306,821.7008,699.1854,577.7652
900.0605,822.054,699.8593,578.6545
905.1664,822.4164,700.55,579.5659
910.0964,822.7624,701.2098,580.4366
915.0263,823.1116,701.8746,581.3134
920.1322,823.4572,702.5327,582.1812
925.0622,823.7934,703.1725,583.0251
930.1681,824.1385,703.8285,583.8898
935.098,824.4683,704.4553,584.7159
940.028,824.8005,705.0866,585.5483
945.1339,825.1298,705.7116,586.3716
950.0638,825.45,706.3194,587.1722
955.1698,825.7784,706.9426,587.9927
960.0997,826.0925,707.5382,588.7765
965.0296,826.409,708.1379,589.5663
970.1356,826.7224,708.7315,590.3475
975.0655,827.0274,709.3089,591.1071
980.1715,827.3402,709.9008,591.8856
985.1014,827.6392,710.4664,592.6292
990.0313,827.9407,711.036,593.3785
995.1373,828.2392,711.6001,594.1198
1000.07,828.5297,712.1485,594.8404
1005.17,828.8275,712.7107,595.579
1010.1,829.1123,713.2479,596.2845
1015.033,829.3993,713.7891,596.9953
1020.139,829.6837,714.325,597.6984
1025.07,829.9603,714.846,598.3821
1030.17,830.2439,715.3801,599.0828
1035.1,830.5152,715.8905,599.752
1040.03,830.7885,716.4046,600.4264
1045.14,831.0592,716.9136,601.0935
1050.07,831.3225,717.4085,601.7419
1055,831.5879,717.9071,602.3952
1060.11,831.8508,718.4006,603.0416
1065.04,832.1112,718.8891,603.681
1070.14,832.3689,719.3724,604.3138
1075.07,832.6196,719.8425,604.9291
1080,832.8724,720.3161,605.5488
1085.11,833.1226,720.7849,606.1618
1090.038,833.3705,721.2489,606.7683
1095.144,833.6159,721.708,607.3685
1100.07,833.8546,722.1545,607.9521
1105,834.0952,722.6043,608.5399
1110.11,834.3334,723.0498,609.1212
1115.04,834.5694,723.4906,609.6966
1120.15,834.8029,723.9266,610.2658
1125.08,835.0303,724.3506,610.8192
1130.01,835.2592,724.7778,611.3767
1135.11,835.4862,725.2006,611.9282
1140.04,835.7105,725.6192,612.474
1145.15,835.933,726.0335,613.0137
1150.08,836.1492,726.4362,613.5387
1155.01,836.3671,726.8418,614.0672
1160.11,836.583,727.2434,614.5902
1165.04,836.7967,727.641,615.1077
1170.149,837.0084,728.0344,615.6196
1175.079,837.214,728.4169,616.1174
1180.01,837.4216,728.802,616.6186
1185.11,837.6269,729.1835,617.1146
1190.04,837.8302,729.561,617.6052
1195.15,838.0316,729.9346,618.091
1200.0,838.2256,730.2943,618.5587