File: PMMA/Validation_Results/BUW-FZJ/BUW-FZJ-C_Gasification_q50_MLR_R3.csv
Time,MLR_CH4,MLR_CO2,MLR_Combined
[s],[g/m2/s],[g/m2/s],[g/m2/s]
0.0,0.0,0.0,0.0
2.1128,0.0007,0.003,0.0037
4.0496,0.034,0.0314,0.0654
6.1624,0.2585,0.1044,0.3629
8.0991,0.8786,0.2222,1.1008
10.0359,1.5501,0.3717,1.9219
12.1487,1.3787,0.4945,1.8732
14.0855,1.2771,0.5536,1.8307
16.0222,1.3887,0.5852,1.9739
18.135,1.6048,0.6355,2.2402
20.0718,1.8865,0.7222,2.6088
22.0085,2.2473,0.857,3.1043
24.1213,2.6627,1.0344,3.6971
26.0581,3.0994,1.24,4.3394
28.1709,3.5995,1.4958,5.0953
30.1077,4.0664,1.7532,5.8196
32.0444,4.5533,2.04,6.5933
34.1572,5.0222,2.3363,7.3585
36.094,5.4472,2.6221,8.0694
38.0307,5.8669,2.9227,8.7896
40.1435,6.2537,3.2179,9.4716
42.0803,6.5915,3.4928,10.0843
44.017,6.9103,3.7703,10.6805
46.1299,7.1959,4.0361,11.232
48.0666,7.4427,4.2819,11.7246
50.0034,7.6723,4.5273,12.1996
52.1162,7.8766,4.7619,12.6384
54.0529,8.0574,4.9855,13.0429
56.1657,8.2115,5.1942,13.4057
58.1025,8.3451,5.3884,13.7336
60.0392,8.471,5.5847,14.0558
62.1521,8.5755,5.765,14.3405
64.0888,8.6684,5.9368,14.6052
66.0256,8.7516,6.1041,14.8557
68.1384,8.8212,6.2633,15.0845
70.0751,8.8844,6.413,15.2973
72.0119,8.9373,6.5579,15.4951
74.1247,8.987,6.7017,15.6887
76.0614,9.0257,6.828,15.8538
78.1743,9.0657,6.968,16.0336
80.111,9.0936,7.0824,16.1761
82.0478,9.1229,7.2059,16.3288
84.1606,9.1457,7.3178,16.4635
86.0973,9.1668,7.4271,16.5938
88.0341,9.1843,7.5311,16.7153
90.1469,9.1993,7.6339,16.8331
92.0837,9.2145,7.729,16.9436
94.0204,9.2243,7.8219,17.0462
96.1332,9.238,7.9159,17.1538
98.07,9.2442,7.9974,17.2416
100.0067,9.255,8.084,17.339
102.1195,9.2618,8.1656,17.4273
104.0563,9.2686,8.2431,17.5117
106.1691,9.2759,8.3195,17.5954
108.1059,9.2818,8.3906,17.6723
110.0426,9.2859,8.4576,17.7434
112.1554,9.2932,8.5283,17.8215
114.0922,9.2974,8.5905,17.888
116.0289,9.303,8.6526,17.9556
118.1417,9.3091,8.7166,18.0257
120.0785,9.3147,8.7712,18.0859
122.0152,9.319,8.8276,18.1467
124.1281,9.3249,8.8819,18.2067
126.0648,9.3313,8.934,18.2653
128.0016,9.3368,8.9846,18.3214
130.1144,9.3427,9.0335,18.3763
132.0511,9.3482,9.0813,18.4296
134.1639,9.3546,9.1258,18.4803
136.1007,9.361,9.1691,18.5301
138.0374,9.368,9.2132,18.5811
140.1503,9.3739,9.2516,18.6255
142.087,9.3805,9.2897,18.6702
144.0238,9.3868,9.3254,18.7123
146.1366,9.3945,9.3646,18.7591
148.0733,9.4011,9.3962,18.7973
150.0101,9.408,9.4316,18.8395
152.1229,9.4155,9.4636,18.8791
154.0596,9.4226,9.4942,18.9168
156.1725,9.4309,9.5258,18.9567
158.1092,9.4379,9.5541,18.992
160.046,9.4453,9.581,19.0263
162.1588,9.454,9.6091,19.0631
164.0955,9.4619,9.6336,19.0955
166.0323,9.4702,9.6587,19.1289
168.1451,9.4791,9.6832,19.1624
170.0818,9.4868,9.7049,19.1916
172.0186,9.4954,9.728,19.2234
174.1314,9.5038,9.7494,19.2532
176.0682,9.5121,9.7693,19.2814
178.0049,9.5208,9.79,19.3108
180.1177,9.5289,9.8091,19.338
182.0545,9.5381,9.828,19.3661
184.1673,9.5477,9.8465,19.3942
186.104,9.5564,9.8637,19.4201
188.0408,9.566,9.8797,19.4457
190.1536,9.5754,9.8956,19.471
192.0904,9.5846,9.9106,19.4952
194.0271,9.5945,9.9258,19.5202
196.1399,9.6042,9.9407,19.5449
198.0767,9.6134,9.9542,19.5676
200.0134,9.6236,9.9689,19.5925
202.1263,9.634,9.9822,19.6162
204.063,9.6423,9.9918,19.6341
206.1758,9.6533,10.0103,19.6636
208.1126,9.6657,10.0329,19.6986
210.0493,9.6718,10.0257,19.6976
212.1621,9.6866,10.0412,19.7277
214.0989,9.6959,10.0548,19.7507
216.0356,9.709,10.0712,19.7802
218.1485,9.7174,10.0802,19.7976
220.0852,9.7291,10.0924,19.8215
222.022,9.7401,10.102,19.8421
224.1348,9.7506,10.1121,19.8627
226.0715,9.7622,10.1234,19.8856
228.0083,9.774,10.1345,19.9085
230.1211,9.785,10.1455,19.9305
232.0578,9.7953,10.1563,19.9516
234.1707,9.8066,10.1683,19.975
236.1074,9.8168,10.1794,19.9962
238.0442,9.8276,10.1919,20.0194
240.157,9.838,10.2048,20.0428
242.0937,9.8472,10.2175,20.0648
244.0305,9.8563,10.2309,20.0871
246.1433,9.8646,10.2456,20.1102
248.08,9.8717,10.2604,20.1321
250.0168,9.8783,10.2766,20.1548
252.1296,9.8839,10.2947,20.1785
254.0664,9.8876,10.3127,20.2003
256.0031,9.8904,10.3335,20.224
258.1159,9.8924,10.356,20.2483
260.0527,9.8938,10.3812,20.275
262.1655,9.896,10.4088,20.3048
264.1023,9.8999,10.4383,20.3382
266.039,9.9086,10.4724,20.381
268.1518,9.9249,10.5107,20.4355
270.0886,9.9504,10.5522,20.5026
272.0253,9.9945,10.6081,20.6027
274.1381,10.0655,10.6841,20.7496
276.0749,10.1497,10.7556,20.9053
278.0116,10.2578,10.8409,21.0987
280.1245,10.3882,10.9404,21.3286
282.0612,10.5283,11.042,21.5703
284.174,10.7023,11.1723,21.8746
286.1108,10.8821,11.3089,22.191
288.0475,11.0931,11.4734,22.5665
290.1603,11.3384,11.6671,23.0055
292.0971,11.6098,11.889,23.4988
294.0338,11.9146,12.1338,24.0485
296.1467,12.1701,12.3419,24.512
298.0834,12.4207,12.5864,25.0071
300.0202,12.6636,12.8414,25.505
302.133,12.8838,13.1043,25.9881
304.0697,13.0644,13.3435,26.4079
306.0065,13.2169,13.577,26.7939
308.1193,13.3292,13.7936,27.1227
310.056,13.4115,14.0027,27.4142
312.1689,13.4545,14.1878,27.6423
314.1056,13.4644,14.3515,27.8159
316.0424,13.4537,14.528,27.9817
318.1552,13.4082,14.674,28.0823
320.0919,13.3467,14.8257,28.1724
322.0287,13.2594,14.9751,28.2346
324.1415,13.1444,15.1099,28.2544
326.0783,13.0209,15.2476,28.2686
328.015,12.8687,15.3828,28.2515
330.1278,12.699,15.5271,28.2261
332.0646,12.5191,15.6658,28.1849
334.0013,12.3059,15.7949,28.1008
336.1141,12.0819,15.9507,28.0326
338.0509,11.8316,16.0877,27.9193
340.1637,11.5631,16.24,27.8031
342.1005,11.2905,16.3876,27.6781
344.0372,10.9772,16.5236,27.5007
346.15,10.6487,16.6811,27.3298
348.0868,10.3135,16.8253,27.1388
350.0235,9.9343,16.9499,26.8842
352.1363,9.5459,17.1119,26.6578
354.0731,9.1502,17.248,26.3982
356.0098,8.7062,17.3509,26.0571
358.1226,8.2415,17.4587,25.7002
360.0594,7.7901,17.5719,25.362
362.1722,7.2757,17.672,24.9476
364.109,6.76,17.6501,24.4101
366.0457,6.2019,17.5809,23.7828
368.1585,5.6546,17.5562,23.2107
370.0953,5.0977,17.3783,22.476
372.032,4.5028,17.0556,21.5584
374.1449,3.8695,16.3404,20.2099
376.0816,3.1893,14.7082,17.8976
378.0184,2.2971,9.9614,12.2584
380.1312,0.2999,0.0691,0.369
382.0679,0.0,0.0,0.0
384.0047,0.0,0.0,0.0
386.1175,0.0,0.0,0.0
388.0542,0.0,0.0,0.0
390.1671,0.0,0.0,0.0
392.1038,0.0,0.0,0.0
394.0406,0.0,0.0,0.0
396.1534,0.0,0.0,0.0
398.0901,0.0,0.0,0.0
400.0269,0.0,0.0,0.0
402.1397,0.0,0.0,0.0
404.0764,0.0,0.0,0.0
406.0132,0.0,0.0,0.0
408.126,0.0,0.0,0.0
410.0628,0.0,0.0,0.0
412.1756,0.0,0.0,0.0
414.1123,0.0,0.0,0.0
416.0491,0.0,0.0,0.0
418.1619,0.0,0.0,0.0
420.0986,0.0,0.0,0.0
422.0354,0.0,0.0,0.0
424.1482,0.0,0.0,0.0
426.085,0.0,0.0,0.0
428.0217,0.0,0.0,0.0
430.1345,0.0,0.0,0.0
432.0713,0.0,0.0,0.0
434.008,0.0,0.0,0.0
436.1208,0.0,0.0,0.0
438.0576,0.0,0.0,0.0
440.1704,0.0,0.0,0.0
442.1072,0.0,0.0,0.0
444.0439,0.0,0.0,0.0
446.1567,0.0,0.0,0.0
448.0935,0.0,0.0,0.0
450.0302,0.0,0.0,0.0
452.1431,0.0,0.0,0.0
454.0798,0.0,0.0,0.0
456.0166,0.0,0.0,0.0
458.1294,0.0,0.0,0.0
460.0661,0.0,0.0,0.0
462.0029,0.0,0.0,0.0
464.1157,0.0,0.0,0.0
466.0524,0.0,0.0,0.0
468.1653,0.0,0.0,0.0
470.102,0.0,0.0,0.0
472.0388,0.0,0.0,0.0
474.1516,0.0,0.0,0.0
476.0883,0.0,0.0,0.0
478.0251,0.0,0.0,0.0
480.1379,0.0,0.0,0.0
482.0746,0.0,0.0,0.0
484.0114,0.0,0.0,0.0
486.1242,0.0,0.0,0.0
488.061,0.0,0.0,0.0
490.1738,0.0,0.0,0.0
492.1105,0.0,0.0,0.0
494.0473,0.0,0.0,0.0
496.1601,0.0,0.0,0.0
498.0968,0.0,0.0,0.0
500.0,0.0,0.0,0.0