File: PMMA/Validation_Results/BUW-FZJ/BUW-FZJ_ApproachB_Gasification_q50_Temp_R2.csv
Time,T_back_1
[s],[K]
0.0,291.2
2.112818,291.2
4.04957,291.2
6.16239,291.2
8.09914,291.2
10.0359,291.2
12.1487,291.201
14.0855,291.203
16.0222,291.211
18.135,291.233
20.0718,291.274
22.0085,291.352
24.1213,291.479
26.0581,291.657
28.1709,291.929
30.1077,292.26
32.0444,292.698
34.1572,293.239
36.094,293.857
38.0307,294.613
40.1435,295.485
42.0803,296.426
44.017,297.523
46.12986,298.735
48.06661,299.999
50.00336,301.427
52.1162,302.96
54.0529,304.593
56.1657,306.322
58.1025,308.061
60.0392,309.961
62.1521,311.943
64.0888,313.908
66.0256,316.031
68.1384,318.218
70.0751,320.366
72.0119,322.665
74.1247,325.016
76.0614,327.307
78.1743,329.852
80.111,332.222
82.0478,334.735
84.1606,337.281
86.0973,339.743
88.0341,342.345
90.1469,344.972
92.0837,347.505
94.0204,350.175
96.13322,352.863
98.06997,355.451
100.007,358.173
102.12,360.909
104.056,363.658
106.169,366.421
108.106,369.073
110.043,371.857
112.155,374.651
114.092,377.332
116.029,380.1427
118.142,382.962
120.078,385.665
122.015,388.5
124.128,391.34
126.065,394.064
128.002,396.916
130.114,399.775
132.051,402.64
134.164,405.51
136.101,408.2604
138.037,411.141
140.15,414.026
142.087,416.79
144.024,419.686
146.137,422.586
148.073,425.364
150.01,428.274
152.1229,431.189
154.06,433.981
156.172,437.033
158.109,439.835
160.046,442.77
162.159,445.71
164.096,448.526
166.032,451.475
168.1451,454.43
170.082,457.26
172.0186,460.2247
174.131,463.194
176.068,466.04
178.005,469.02
180.118,472.006
182.054,474.997
184.1673,477.993
186.104,480.864
188.0408,483.87
190.154,486.88
192.09,489.7645
194.027,492.785
196.14,495.809
198.077,498.7073
200.013,501.741
202.126,504.779
204.063,507.688
206.176,510.864
208.113,513.778
210.049,516.827
212.162,519.878
214.099,522.797
216.036,525.851
218.148,528.904
220.085,531.8226
222.022,534.872
224.135,537.917
226.072,540.822
228.008,543.853
230.1211,546.874
232.058,549.753
234.171,552.882
236.107,555.738
238.044,558.707
240.157,561.655
242.094,564.454
244.03,567.357
246.1433,570.234
248.08,572.9606
250.0168,575.782
252.13,578.569
254.066,581.204
256.003,583.922
258.116,586.597
260.053,589.231
262.1655,591.823
264.102,594.266
266.039,596.782
268.152,599.263
270.089,601.604
272.025,604.025
274.138,606.424
276.075,608.702
278.012,611.074
280.124,613.445
282.061,615.721
284.174,618.221
286.111,620.539
288.048,623
290.16,625.513
292.097,627.975
294.034,630.624
296.147,633.364
298.083,636.085
300.02,639.05
302.133,642.165
304.07,645.306
306.006,648.789
308.1193,652.519
310.056,656.538
312.169,660.9184
314.106,665.522
316.042,670.888
318.155,677.006
320.092,683.841
322.029,692.536
324.1415,703.905
326.078,720.133
328.015,753.721
330.128,811.357
332.065,843.903
334.001,863.663
336.114,875.952
338.051,884.192
340.1637,890.0099
342.1,894.178
344.0372,897.579
346.15,900.312
348.087,902.4896
350.024,904.431
352.136,906.11
354.073,907.536
356.01,908.873
358.123,910.076
360.0594,911.123
362.172,912.165
364.109,913.041
366.046,913.89
368.159,914.677
370.095,915.38
372.032,916.068
374.145,916.713
376.082,917.295
378.018,917.871
380.131,918.415
382.068,918.91
384.005,919.402
386.117,919.871
388.054,920.317
390.167,920.744
392.104,921.135
394.041,921.528
396.153,921.9046
398.09,922.2501
400.027,922.6
402.1397,922.934
404.076,923.245
406.0132,923.557
408.126,923.859
410.063,924.139
412.176,924.434
414.112,924.696
416.049,924.96
418.1619,925.218
420.099,925.456
422.0354,925.699
424.148,925.935
426.085,926.155
428.022,926.381
430.135,926.6025
432.071,926.808
434.008,927.018
436.121,927.223
438.0576,927.415
440.17,927.619
442.107,927.8
444.044,927.986
446.157,928.168
448.093,928.336
450.03,928.51
452.143,928.679
454.08,928.836
456.017,928.998
458.129,929.157
460.066,929.304
462.003,929.455
464.116,929.6039
466.052,929.748
468.165,929.891
470.102,930.024
472.039,930.161
474.152,930.2938
476.088,930.419
478.025,930.549
480.1379,930.676
482.075,930.794
484.0114,930.916
486.124,931.0357
488.061,931.149
490.174,931.269
492.111,931.378
494.047,931.491
496.1601,931.601
498.097,931.704
500.0,931.809