File: PMMA/Validation_Results/BUW-FZJ/BUW-FZJ-B_Gasification_q50_Mass_R3.csv
Time,Mass
[s],[g]
0.0,26.6818
2.1128,26.6818
4.0496,26.6818
6.1624,26.6818
8.0991,26.6818
10.0359,26.6818
12.1487,26.6818
14.0855,26.6817
16.0222,26.6816
18.135,26.6813
20.0718,26.6806
22.0085,26.679
24.1213,26.6756
26.0581,26.6699
28.1709,26.6594
30.1077,26.6444
32.0444,26.622
34.1572,26.5917
36.094,26.5551
38.0307,26.509
40.1435,26.4551
42.0803,26.3971
44.017,26.3302
46.1299,26.2576
48.0666,26.1833
50.0034,26.1012
52.1162,26.0149
54.0529,25.9248
56.1657,25.8314
58.1025,25.7392
60.0392,25.64
62.1521,25.5382
64.0888,25.4386
66.0256,25.3323
68.1384,25.224
70.0751,25.1187
72.0119,25.0068
74.1247,24.8933
76.0614,24.7833
78.1743,24.6619
80.111,24.5493
82.0478,24.4303
84.1606,24.3101
86.0973,24.1942
88.0341,24.0719
90.1469,23.9486
92.0837,23.8298
94.0204,23.7047
96.1332,23.5788
98.07,23.4575
100.0067,23.3299
102.1195,23.2016
104.0563,23.0725
106.1691,22.9426
108.1059,22.8177
110.0426,22.6865
112.1554,22.5546
114.0922,22.4278
116.0289,22.2945
118.1417,22.1606
120.0785,22.0318
122.0152,21.8966
124.1281,21.7606
126.0648,21.63
128.0016,21.4926
130.1144,21.3546
132.0511,21.2159
134.1639,21.0765
136.1007,20.9426
138.0374,20.8018
140.1503,20.6603
142.087,20.5242
144.0238,20.3813
146.1366,20.2377
148.0733,20.0996
150.0101,19.9545
152.1229,19.8086
154.0596,19.6685
156.1725,19.5148
158.1092,19.3731
160.046,19.2243
162.1588,19.0748
164.0955,18.931
166.0323,18.7799
168.1451,18.628
170.0818,18.482
172.0186,18.3286
174.1314,18.1744
176.0682,18.026
178.0049,17.8702
180.1177,17.7135
182.0545,17.5559
184.1673,17.3975
186.104,17.2451
188.0408,17.0849
190.1536,16.9239
192.0904,16.769
194.0271,16.6061
196.1399,16.4424
198.0767,16.2848
200.0134,16.1191
202.1263,15.9524
204.063,15.792
206.1758,15.616
208.1126,15.4537
210.0493,15.2829
212.1621,15.1111
214.0989,14.9457
216.0356,14.7718
218.1485,14.5967
220.0852,14.4281
222.022,14.2506
224.1348,14.072
226.0715,13.9
228.0083,13.7189
230.1211,13.5366
232.0578,13.3609
234.1707,13.168
236.1074,12.9897
238.0442,12.802
240.157,12.6128
242.0937,12.4305
244.0305,12.2384
246.1433,12.0448
248.08,11.8581
250.0168,11.6614
252.1296,11.463
254.0664,11.2716
256.0031,11.0698
258.1159,10.8662
260.0527,10.6609
262.1655,10.4536
264.1023,10.2536
266.039,10.0426
268.1518,9.8296
270.0886,9.624
272.0253,9.4071
274.1381,9.1882
276.0749,8.9768
278.0116,8.7538
280.1245,8.5287
282.0612,8.3115
284.174,8.0724
286.1108,7.8514
288.0475,7.6183
290.1603,7.3833
292.0971,7.1567
294.0338,6.9182
296.1467,6.6778
298.0834,6.4464
300.0202,6.2029
302.133,5.9578
304.0697,5.7221
306.0065,5.4744
308.1193,5.2254
310.056,4.9752
312.1689,4.7239
314.1056,4.4826
316.0424,4.2293
318.1552,3.9751
320.0919,3.7312
322.0287,3.4754
324.1415,3.2189
326.0783,2.9731
328.015,2.7156
330.1278,2.4578
332.0646,2.2111
334.0013,1.9534
336.1141,1.6961
338.0509,1.4399
340.1637,1.1856
342.1005,0.9452
344.0372,0.6987
346.15,0.4613
348.0868,0.2504
350.0235,0.0687
352.1363,0.0002
354.0731,0.0
356.0098,0.0
358.1226,0.0
360.0594,0.0
362.1722,0.0
364.109,0.0
366.0457,0.0
368.1585,0.0
370.0953,0.0
372.032,0.0
374.1449,0.0
376.0816,0.0
378.0184,0.0
380.1312,0.0
382.0679,0.0
384.0047,0.0
386.1175,0.0
388.0542,0.0
390.1671,0.0
392.1038,0.0
394.0406,0.0
396.1534,0.0
398.0901,0.0
400.0269,0.0
402.1397,0.0
404.0764,0.0
406.0132,0.0
408.126,0.0
410.0628,0.0
412.1756,0.0
414.1123,0.0
416.0491,0.0
418.1619,0.0
420.0986,0.0
422.0354,0.0
424.1482,0.0
426.085,0.0
428.0217,0.0
430.1345,0.0
432.0713,0.0
434.008,0.0
436.1208,0.0
438.0576,0.0
440.1704,0.0
442.1072,0.0
444.0439,0.0
446.1567,0.0
448.0935,0.0
450.0302,0.0
452.1431,0.0
454.0798,0.0
456.0166,0.0
458.1294,0.0
460.0661,0.0
462.0029,0.0
464.1157,0.0
466.0524,0.0
468.1653,0.0
470.102,0.0
472.0388,0.0
474.1516,0.0
476.0883,0.0
478.0251,0.0
480.1379,0.0
482.0746,0.0
484.0114,0.0
486.1242,0.0
488.061,0.0
490.1738,0.0
492.1105,0.0
494.0473,0.0
496.1601,0.0
498.0968,0.0
500.0,0.0