File: PMMA/Validation_Results/BUW-FZJ/BUW-FZJ_A_Gasification_q50_Temp_R2.csv
Time,T_back_1
[s],[K]
0.0,291.2
2.1128,291.2
4.0496,291.2
6.1624,291.2
8.0991,291.2
10.0359,291.2
12.1487,291.2
14.0855,291.2003
16.0222,291.2016
18.135,291.2056
20.0718,291.2151
22.0085,291.2352
24.1213,291.2719
26.0581,291.3289
28.1709,291.4234
30.1077,291.5469
32.0444,291.7208
34.1572,291.9479
36.094,292.2202
38.0307,292.5676
40.1435,292.9843
42.0803,293.4505
44.017,294.0112
46.1299,294.6497
48.0666,295.3336
50.0034,296.1255
52.1162,296.9971
54.0529,297.9464
56.1657,298.9737
58.1025,300.0271
60.0392,301.2006
62.1521,302.4467
64.0888,303.7037
66.0256,305.0835
68.1384,306.5286
70.0751,307.9689
72.0119,309.5326
74.1247,311.1537
76.0614,312.7549
78.1743,314.5557
80.111,316.2534
82.0478,318.0739
84.1606,319.9392
86.0973,321.7629
88.0341,323.7087
90.1469,325.6931
92.0837,327.6251
94.0204,329.6789
96.1332,331.7661
98.07,333.7922
100.0067,335.9398
102.1195,338.1171
104.0563,340.3225
106.1691,342.5549
108.1059,344.7143
110.0426,346.9964
112.1554,349.3026
114.0922,351.5307
116.0289,353.8821
118.1417,356.2558
120.0785,358.5464
122.0152,360.9621
124.1281,363.3981
126.0648,365.7472
128.0016,368.2225
130.1144,370.7175
132.0511,373.2317
134.1639,375.7652
136.1007,378.2061
138.0374,380.7762
140.1503,383.3646
142.087,385.8575
144.0238,388.4814
146.1366,391.1235
148.0733,393.6675
150.0101,396.3445
152.1229,399.0396
154.0596,401.6346
156.1725,404.4832
158.1092,407.1115
160.046,409.8766
162.1588,412.6596
164.0955,415.3382
166.0323,418.1558
168.1451,420.9918
170.0818,423.7209
172.0186,426.591
174.1314,429.4798
176.0682,432.2596
178.0049,435.1835
180.1177,438.1258
182.0545,441.0865
184.1673,444.0658
186.104,446.9324
188.0408,449.9476
190.1536,452.9816
192.0904,455.9019
194.0271,458.9734
196.1399,462.0646
198.0767,465.04
200.0134,468.1702
202.1263,471.3217
204.063,474.3543
206.1758,477.6854
208.1126,480.7595
210.0493,483.995
212.1621,487.254
214.0989,490.3929
216.0356,493.6985
218.1485,497.0288
220.0852,500.2379
222.022,503.6184
224.1348,507.0265
226.0715,510.3123
228.0083,513.7751
230.1211,517.269
232.0578,520.6372
234.1707,524.3431
236.1074,527.7704
238.0442,531.3832
240.157,535.0262
242.0937,538.5365
244.0305,542.2329
246.1433,545.9535
248.08,549.5334
250.0168,553.2964
252.1296,557.0793
254.0664,560.7147
256.0031,564.5217
258.1159,568.3368
260.0527,572.1581
262.1655,575.9816
264.1023,579.6373
266.039,583.4553
268.1518,587.2652
270.0886,590.8976
272.0253,594.6745
274.1381,598.4335
276.0749,602.0138
278.0116,605.7426
280.1245,609.4593
282.0612,613.0078
284.174,616.877
286.1108,620.4301
288.0475,624.1625
290.1603,627.9216
292.0971,631.5583
294.0338,635.4202
296.1467,639.3686
298.0834,643.2412
300.0202,647.4213
302.133,651.758
304.0697,656.0996
306.0065,660.8454
308.1193,665.9401
310.056,671.3207
312.1689,677.1915
314.1056,683.3755
316.0424,690.701
318.1552,699.2824
320.0919,709.4756
322.0287,723.2252
324.1415,747.006
326.0783,786.556
328.015,799.9164
330.1278,808.2333
332.0646,814.689
334.0013,820.1234
336.1141,824.6217
338.0509,828.4628
340.1637,831.7868
342.1005,834.6166
344.0372,837.2692
346.15,839.6589
348.0868,841.7478
350.0235,843.7546
352.1363,845.6028
354.0731,847.2478
356.0098,848.8579
358.1226,850.3699
360.0594,851.7331
362.1722,853.1302
364.109,854.342
366.0457,855.5412
368.1585,856.6813
370.0953,857.7201
372.032,858.7535
374.1449,859.7419
376.0816,860.6464
378.0184,861.5519
380.1312,862.4208
382.0679,863.2193
384.0047,864.0245
386.1175,864.7977
388.0542,865.5445
390.1671,866.2641
392.1038,866.9278
394.0406,867.6004
396.1534,868.2515
398.0901,868.8529
400.0269,869.4653
402.1397,870.0624
404.0764,870.6174
406.0132,871.1819
408.126,871.731
410.0628,872.2395
412.1756,872.781
414.1123,873.2638
416.0491,873.7524
418.1619,874.2314
420.0986,874.6766
422.0354,875.1311
424.1482,875.5719
426.085,875.9865
428.0217,876.407
430.1345,876.8203
432.0713,877.2026
434.008,877.5959
436.1208,877.9791
438.0576,878.3382
440.1704,878.7202
442.1072,879.0652
444.0439,879.417
446.1567,879.7612
448.0935,880.0859
450.0302,880.4155
452.1431,880.7408
454.0798,881.0466
456.0166,881.3567
458.1294,881.6658
460.0661,881.9507
462.0029,882.2468
464.1157,882.5372
466.0524,882.8209
468.1653,883.1011
470.102,883.3628
472.0388,883.6328
474.1516,883.8968
476.0883,884.1464
478.0251,884.4021
480.1379,884.6525
482.0746,884.8895
484.0114,885.1335
486.1242,885.371
488.061,885.5964
490.1738,885.8395
492.1105,886.0543
494.0473,886.2803
496.1601,886.5008
498.0968,886.7082
500.0,886.9199