File: PMMA/Validation_Results/BUW-FZJ/BUW-FZJ_PMMA01_Gasification_q50_MLR_R4.csv
Time,MLR_CH4,MLR_CO2,MLR_Combined
[s],[g/m2/s],[g/m2/s],[g/m2/s]
0.0,0.0,0.0,0.0
2.112818,0.000671642,0.00301882,0.00369046
4.04957,0.0339729,0.0313906,0.0653635
6.16239,0.258455,0.104383,0.362838
8.09914,0.878514,0.222151,1.10067
10.0359,1.54998,0.371687,1.92167
12.1487,1.3786,0.494506,1.87311
14.0855,1.27759,0.5535251,1.831115
16.0222,1.38867,0.585297,1.97396
18.135,1.6045,0.635355,2.23986
20.0718,1.88688,0.722617,2.6095
22.0085,2.24739,0.857134,3.10452
24.1213,2.66389,1.03499,3.69888
26.0581,3.10047,1.24073,4.341194
28.1709,3.59809,1.49503,5.09312
30.1077,4.066311,1.75326,5.81957
32.0444,4.55357,2.04016,6.59373
34.1572,5.02339,2.33722,7.36061
36.094,5.45109,2.6247,8.07579
38.0307,5.86989,2.92453,8.79442
40.1435,6.25436,3.21824,9.4726
42.0803,6.59178,3.4929,10.0847
44.017,6.91238,3.77172,10.6841
46.12986,7.19816,4.03768,11.2358
48.06661,7.44394,4.28259,11.7265
50.00336,7.67396,4.5282,12.2022
52.1162,7.87919,4.76389,12.6431
54.0529,8.06062,4.98798,13.0486
56.1657,8.21849,5.19981,13.4183
58.1025,8.34908,5.39075,13.7398
60.0392,8.47673,5.588926,14.0657
62.1521,8.58445,5.771902,14.3564
64.0888,8.67481,5.94041,14.6152
66.0256,8.761412,6.11278,14.8742
68.1384,8.83324,6.27156,15.1048
70.0751,8.89681,6.42374,15.3205
72.0119,8.9509,6.56775,15.5186
74.1247,9.00021,6.71146,15.7117
76.0614,9.04215,6.84148,15.8836
78.1743,9.08116,6.97835,16.0595
80.111,9.11332,7.0996,16.2129
82.0478,9.14236,7.21946,16.3618
84.1606,9.16957,7.33866,16.5082
86.0973,9.18894,7.44287,16.6318
88.0341,9.20829,7.55132,16.7596
90.1469,9.22627,7.65502,16.8813
92.0837,9.23879,7.74824,16.987
94.0204,9.25576,7.84756,17.1033
96.13322,9.26481,7.9371,17.2019
98.06997,9.277453,8.02433,17.3018
100.007,9.28747,8.11157,17.399
102.12,9.29544,8.19275,17.4882
104.056,9.304248,8.27275,17.577
106.169,9.31292,8.35164,17.6646
108.106,9.31774,8.41743,17.7352
110.043,9.32552,8.49257,17.8181
112.155,9.333184,8.56027,17.8935
114.092,9.3392,8.62462,17.9638
116.029,9.34588,8.68892,18.0348
118.142,9.35166,8.75042,18.1021
120.078,9.35928,8.80865,18.1679
122.015,9.36575,8.86627,18.232
124.128,9.37199,8.9207,18.2927
126.065,9.37805,8.972661,18.3507
128.002,9.38496,9.02435,18.4093
130.114,9.39126,9.07354,18.4648
132.051,9.39747,9.12139,18.5189
134.164,9.404869,9.16906,18.5739
136.101,9.4109,9.20989,18.6208
138.037,9.41944,9.25447,18.6739
140.15,9.42703,9.29403,18.7211
142.087,9.43406,9.33396,18.768
144.024,9.44222,9.37197,18.8142
146.137,9.44937,9.4089,18.8583
148.073,9.45691,9.44225,18.8992
150.01,9.46493,9.47772,18.9426
152.1229,9.47296,9.51009,18.9831
154.06,9.48043,9.54064,19.0211
156.172,9.4889,9.5729,19.0618
158.109,9.49714,9.60078,19.0979
160.046,9.50655,9.62952,19.1361
162.159,9.51538,9.65634,19.1717
164.096,9.52358,9.681158,19.2047
166.032,9.53251,9.70673,19.2392
168.1451,9.54154,9.73061,19.2722
170.082,9.55052,9.75343,19.3039
172.0186,9.56039,9.776897,19.3373
174.131,9.56998,9.7996,19.3696
176.068,9.57904,9.81984,19.3989
178.005,9.58897,9.84053,19.4295
180.118,9.598998,9.86096,19.46
182.054,9.60927,9.879407,19.4887
184.1673,9.61971,9.89735,19.5171
186.104,9.62972,9.91392,19.5436
188.0408,9.64066,9.93144,19.5721
190.154,9.65157,9.94836,19.5999
192.09,9.66227,9.96445,19.6267
194.027,9.67454,9.981735,19.6563
196.14,9.68442,9.99408,19.6785
198.077,9.69538,10.0116,19.7069
200.013,9.70934,10.0371,19.7465
202.126,9.7168,10.0384,19.7552
204.063,9.73094,10.0492,19.7802
206.176,9.74315,10.0681,19.8112
208.113,9.75635,10.0851,19.8415
210.049,9.76642,10.0966,19.8631
212.162,9.77916,10.1113,19.8905
214.099,9.79139,10.1236,19.915
216.036,9.80287,10.1358,19.9387
218.148,9.81492,10.1493,19.9643
220.085,9.82672,10.1629,19.9896
222.022,9.83901,10.1775,20.0165
224.135,9.85065,10.1919,20.0425
226.072,9.8609,10.2058,20.0667
228.008,9.87132,10.2206,20.0919
230.1211,9.88076,10.2362,20.117
232.058,9.889173,10.2515,20.1407
234.171,9.89748,10.2691,20.1666
236.107,9.90401,10.2865,20.1905
238.044,9.90947,10.3058,20.2153
240.157,9.91335,10.3261,20.2394
242.094,9.91601,10.3479,20.2639
244.03,9.91763,10.3721,20.2897
246.1433,9.91899,10.3992,20.3182
248.08,9.92135,10.4275,20.3488
250.0168,9.926088,10.4605,20.3866
252.13,9.93655,10.4966,20.4332
254.066,9.95491,10.5356,20.4905
256.003,9.98621,10.58217,20.5684
258.116,10.0348,10.6379,20.6726
260.053,10.1116,10.7127,20.82436
262.1655,10.2128,10.7988,21.0116
264.102,10.3283,10.8861,21.2143
266.039,10.4691,10.9923,21.4615
268.152,10.6303,11.1115,21.7418
270.089,10.8028,11.2423,22.0452
272.025,11.0053,11.3954,22.4007
274.138,11.2376,11.5764,22.814
276.075,11.49496,11.7834,23.2783
278.012,11.801,12.0387,23.8397
280.124,12.085,12.2539,24.3389
282.061,12.3398,12.4916,24.8314
284.174,12.6082,12.7661,25.3742
286.111,12.8292,13.0163,25.8455
288.048,13.0329,13.2786,26.3115
290.16,13.2003,13.5237,26.724
292.097,13.3218,13.7354,27.0572
294.034,13.4146,13.9513,27.3659
296.147,13.472,14.1489,27.6209
298.083,13.4916,14.3146,27.8062
300.02,13.4851,14.4884,27.9735
302.133,13.4529,14.6535,28.1064
304.07,13.3929,14.794,28.1869
306.006,13.312,14.9491,28.2611
308.1193,13.2024,15.0824,28.2848
310.056,13.0754,15.2288,28.3042
312.169,12.9308,15.3759,28.3067
314.106,12.7667,15.5006,28.2674
316.042,12.5844,15.6531,28.2375
318.155,12.3734,15.7807,28.1541
320.092,12.1587,15.9244,28.0831
322.029,11.9192,16.08243,28.0016
324.1415,11.6439,16.2048,27.8487
326.078,11.3752,16.3609,27.7361
328.015,11.0719,16.5114,27.5833
330.128,10.7365,16.6481,27.3846
332.065,10.4096,16.8058,27.2155
334.001,10.0395,16.9461,26.9856
336.114,9.6397,17.0771,26.7168
338.051,9.23268,17.23328,26.466
340.1637,8.79664,17.3528,26.1494
342.1,8.34825,17.4368,25.785
344.0372,7.87758,17.5679,25.4455
346.15,7.38569,17.6656,25.0513
348.087,6.88348,17.6874,24.5708
350.024,6.3264,17.6317,23.9581
352.136,5.7655,17.5697,23.3351
354.073,5.21399,17.4251,22.6391
356.01,4.62098,17.147,21.768
358.123,3.98424,16.4694,20.4537
360.0594,3.31644,15.066,18.3825
362.172,2.43994,10.894,13.3339
364.109,0.687804,0.71075,1.39855
366.046,0.0,0.0,0.0
368.159,0.0,0.0,0.0
370.095,0.0,0.0,0.0
372.032,0.0,0.0,0.0
374.145,0.0,0.0,0.0
376.082,0.0,0.0,0.0
378.018,0.0,0.0,0.0
380.131,0.0,0.0,0.0
382.068,0.0,0.0,0.0
384.005,0.0,0.0,0.0
386.117,0.0,0.0,0.0
388.054,0.0,0.0,0.0
390.167,0.0,0.0,0.0
392.104,0.0,0.0,0.0
394.041,0.0,0.0,0.0
396.153,0.0,0.0,0.0
398.09,0.0,0.0,0.0
400.027,0.0,0.0,0.0
402.1397,0.0,0.0,0.0
404.076,0.0,0.0,0.0
406.0132,0.0,0.0,0.0
408.126,0.0,0.0,0.0
410.063,0.0,0.0,0.0
412.176,0.0,0.0,0.0
414.112,0.0,0.0,0.0
416.049,0.0,0.0,0.0
418.1619,0.0,0.0,0.0
420.099,0.0,0.0,0.0
422.0354,0.0,0.0,0.0
424.148,0.0,0.0,0.0
426.085,0.0,0.0,0.0
428.022,0.0,0.0,0.0
430.135,0.0,0.0,0.0
432.071,0.0,0.0,0.0
434.008,0.0,0.0,0.0
436.121,0.0,0.0,0.0
438.0576,0.0,0.0,0.0
440.17,0.0,0.0,0.0
442.107,0.0,0.0,0.0
444.044,0.0,0.0,0.0
446.157,0.0,0.0,0.0
448.093,0.0,0.0,0.0
450.03,0.0,0.0,0.0
452.143,0.0,0.0,0.0
454.08,0.0,0.0,0.0
456.017,0.0,0.0,0.0
458.129,0.0,0.0,0.0
460.066,0.0,0.0,0.0
462.003,0.0,0.0,0.0
464.116,0.0,0.0,0.0
466.052,0.0,0.0,0.0
468.165,0.0,0.0,0.0
470.102,0.0,0.0,0.0
472.039,0.0,0.0,0.0
474.152,0.0,0.0,0.0
476.088,0.0,0.0,0.0
478.025,0.0,0.0,0.0
480.1379,0.0,0.0,0.0
482.075,0.0,0.0,0.0
484.0114,0.0,0.0,0.0
486.124,0.0,0.0,0.0
488.061,0.0,0.0,0.0
490.174,0.0,0.0,0.0
492.111,0.0,0.0,0.0
494.047,0.0,0.0,0.0
496.1601,0.0,0.0,0.0
498.097,0.0,0.0,0.0
500.0,0.0,0.0,0.0