File: PMMA/Validation_Results/BUW-FZJ/BUW-FZJ-C_Gasification_q50_Mass_R5.csv
Time,Mass
[s],[g]
0.0,28.3513
2.1128,28.3513
4.0496,28.351
6.1624,28.3495
8.0991,28.3441
10.0359,28.3317
12.1487,28.3165
14.0855,28.3029
16.0222,28.2882
18.135,28.2718
20.0718,28.2536
22.0085,28.2313
24.1213,28.2047
26.0581,28.1746
28.1709,28.1361
30.1077,28.0952
32.0444,28.0467
34.1572,27.9922
36.094,27.9345
38.0307,27.8686
40.1435,27.7973
42.0803,27.7242
44.017,27.6432
46.1299,27.5577
48.0666,27.472
50.0034,27.3788
52.1162,27.282
54.0529,27.1819
56.1657,27.0789
58.1025,26.9778
60.0392,26.8696
62.1521,26.7591
64.0888,26.6513
66.0256,26.5367
68.1384,26.4202
70.0751,26.3071
72.0119,26.1873
74.1247,26.066
76.0614,25.9487
78.1743,25.8194
80.111,25.6996
82.0478,25.5733
84.1606,25.4459
86.0973,25.3231
88.0341,25.1937
90.1469,25.0634
92.0837,24.938
94.0204,24.806
96.1332,24.6733
98.07,24.5457
100.0067,24.4115
102.1195,24.2766
104.0563,24.1411
106.1691,24.0049
108.1059,23.8741
110.0426,23.7368
112.1554,23.5989
114.0922,23.4666
116.0289,23.3276
118.1417,23.1882
120.0785,23.0544
122.0152,22.914
124.1281,22.7731
126.0648,22.638
128.0016,22.4963
130.1144,22.3542
132.0511,22.2117
134.1639,22.0688
136.1007,21.9317
138.0374,21.7881
140.1503,21.6441
142.087,21.506
144.0238,21.3613
146.1366,21.2163
148.0733,21.0773
150.0101,20.9317
152.1229,20.7857
154.0596,20.6458
156.1725,20.4929
158.1092,20.3525
160.046,20.2054
162.1588,20.0581
164.0955,19.9169
166.0323,19.769
168.1451,19.6209
170.0818,19.479
172.0186,19.3305
174.1314,19.1817
176.0682,19.0391
178.0049,18.8899
180.1177,18.7405
182.0545,18.5908
184.1673,18.441
186.104,18.2974
188.0408,18.1472
190.1536,17.9968
192.0904,17.8527
194.0271,17.7019
196.1399,17.551
198.0767,17.4064
200.0134,17.2551
202.1263,17.1036
204.063,16.9586
206.1758,16.8002
208.1126,16.6548
210.0493,16.5027
212.1621,16.3505
214.0989,16.2047
216.0356,16.0521
218.1485,15.8993
220.0852,15.7531
222.022,15.6001
224.1348,15.447
226.0715,15.3003
228.0083,15.1468
230.1211,14.9932
232.0578,14.8462
234.1707,14.6856
236.1074,14.5382
238.0442,14.384
240.157,14.2297
242.0937,14.0819
244.0305,13.9273
246.1433,13.7725
248.08,13.6243
250.0168,13.4692
252.1296,13.314
254.0664,13.1653
256.0031,13.0098
258.1159,12.854
260.0527,12.6981
262.1655,12.5421
264.1023,12.3927
266.039,12.2363
268.1518,12.0798
270.0886,11.9299
272.0253,11.773
274.1381,11.6159
276.0749,11.4655
278.0116,11.3081
280.1245,11.1504
282.0612,10.9994
284.174,10.8342
286.1108,10.6825
288.0475,10.5232
290.1603,10.3632
292.0971,10.2093
294.0338,10.0471
296.1467,9.8837
298.0834,9.7257
300.0202,9.5589
302.133,9.3899
304.0697,9.2261
306.0065,9.0522
308.1193,8.8752
310.056,8.6946
312.1689,8.5099
314.1056,8.3299
316.0424,8.1381
318.1552,7.9422
320.0919,7.7513
322.0287,7.5483
324.1415,7.342
326.0783,7.1421
328.015,6.9307
330.1278,6.7172
332.0646,6.5113
334.0013,6.2948
336.1141,6.0772
338.0509,5.8587
340.1637,5.6397
342.1005,5.4298
344.0372,5.2101
346.15,4.9905
348.0868,4.7805
350.0235,4.5612
352.1363,4.3423
354.0731,4.1334
356.0098,3.9157
358.1226,3.6988
360.0594,3.4922
362.1722,3.268
364.109,3.0637
366.0457,2.8515
368.1585,2.641
370.0953,2.4412
372.032,2.2344
374.1449,2.0298
376.0816,1.8363
378.0184,1.6367
380.1312,1.4403
382.0679,1.2556
384.0047,1.066
386.1175,0.881
388.0542,0.7013
390.1671,0.5283
392.1038,0.3703
394.0406,0.2163
396.1534,0.0832
398.0901,0.0064
400.0269,0.0
402.1397,0.0
404.0764,0.0
406.0132,0.0
408.126,0.0
410.0628,0.0
412.1756,0.0
414.1123,0.0
416.0491,0.0
418.1619,0.0
420.0986,0.0
422.0354,0.0
424.1482,0.0
426.085,0.0
428.0217,0.0
430.1345,0.0
432.0713,0.0
434.008,0.0
436.1208,0.0
438.0576,0.0
440.1704,0.0
442.1072,0.0
444.0439,0.0
446.1567,0.0
448.0935,0.0
450.0302,0.0
452.1431,0.0
454.0798,0.0
456.0166,0.0
458.1294,0.0
460.0661,0.0
462.0029,0.0
464.1157,0.0
466.0524,0.0
468.1653,0.0
470.102,0.0
472.0388,0.0
474.1516,0.0
476.0883,0.0
478.0251,0.0
480.1379,0.0
482.0746,0.0
484.0114,0.0
486.1242,0.0
488.061,0.0
490.1738,0.0
492.1105,0.0
494.0473,0.0
496.1601,0.0
498.0968,0.0
500.0,0.0