File: PMMA/Validation_Results/BUW-FZJ/BUW-FZJ_ApproachB_Gasification_q50_Mass_R5.csv
Time,Mass
[s],[g]
0.0,28.0385
2.112818,28.0385
4.04957,28.0385
6.16239,28.0385
8.09914,28.0385
10.0359,28.0385
12.1487,28.0385
14.0855,28.0384
16.0222,28.0383
18.135,28.038
20.0718,28.0373
22.0085,28.0357
24.1213,28.0323
26.0581,28.0266
28.1709,28.0161
30.1077,28.0011
32.0444,27.9787
34.1572,27.9484
36.094,27.9118
38.0307,27.8657
40.1435,27.8118
42.0803,27.7538
44.017,27.6869
46.12986,27.6143
48.06661,27.54
50.00336,27.4579
52.1162,27.3716
54.0529,27.2815
56.1657,27.1881
58.1025,27.0959
60.0392,26.9967
62.1521,26.8949
64.0888,26.7953
66.0256,26.6891
68.1384,26.5808
70.0751,26.4754
72.0119,26.3636
74.1247,26.2502
76.0614,26.1402
78.1743,26.0188
80.111,25.9063
82.0478,25.7874
84.1606,25.6673
86.0973,25.5515
88.0341,25.4294
90.1469,25.30625
92.0837,25.1876
94.0204,25.0627
96.13322,24.937
98.06997,24.816
100.007,24.6888
102.12,24.5608
104.056,24.4321
106.169,24.3027
108.106,24.1783
110.043,24.0476
112.155,23.9162
114.092,23.79
116.029,23.6575
118.142,23.5243
120.078,23.3964
122.015,23.262
124.128,23.1271
126.065,22.9974
128.002,22.8613
130.114,22.7245
132.051,22.5871
134.164,22.4491
136.101,22.3165
138.037,22.1773
140.15,22.0375
142.087,21.9031
144.024,21.762
146.137,21.6203
148.073,21.4842
150.01,21.3413
152.1229,21.1977
154.06,21.0598
156.172,20.9086
158.109,20.7695
160.046,20.6234
162.159,20.4766
164.096,20.3356
166.032,20.1876
168.1451,20.0389
170.082,19.896
172.0186,19.746
174.131,19.5954
176.068,19.45058
178.005,19.2985
180.118,19.1458
182.054,18.9923
184.1673,18.8382
186.104,18.69
188.0408,18.5344
190.154,18.378
192.09,18.2277
194.027,18.0699
196.14,17.9113
198.077,17.7588
200.013,17.5987
202.126,17.4377
204.063,17.2829
206.176,17.1132
208.113,16.9568
210.049,16.7925
212.162,16.6272
214.099,16.4684
216.036,16.3014
218.148,16.1335
220.085,15.9721
222.022,15.8023
224.135,15.6316
226.072,15.4673
228.008,15.2946
230.1211,15.1209
232.058,14.9537
234.171,14.7703
236.107,14.6011
238.044,14.4231
240.157,14.2439
242.094,14.0715
244.03,13.89
246.1433,13.7073
248.08,13.5314
250.0168,13.3462
252.13,13.1597
254.066,12.9802
256.003,12.7911
258.116,12.6006
260.053,12.4087
262.1655,12.2152
264.102,12.0288
266.039,11.8324
268.152,11.6344
270.089,11.4435
272.025,11.2423
274.138,11.0394
276.075,10.8437
278.012,10.6373
280.124,10.4291
282.061,10.2283
284.174,10.0071
286.111,9.80261
288.048,9.586886
290.16,9.36917
292.097,9.15906
294.034,8.937442
296.147,8.71379
298.083,8.497992
300.02,8.27043
302.133,8.04088
304.07,7.81948
306.006,7.58616
308.1193,7.35097
310.056,7.11398
312.169,6.87524
314.106,6.64532
316.042,6.40339
318.155,6.15992
320.092,5.925692
322.029,5.67948
324.1415,5.43196
326.078,5.19407
328.015,4.94425
330.128,4.69334
332.065,4.45239
334.001,4.19956
336.114,3.94585
338.051,3.69132
340.1637,3.43606
342.1,3.19131
344.0372,2.93489
346.15,2.67806
348.087,2.43214
350.024,2.17498
352.136,1.91805
354.073,1.67285
356.01,1.41759
358.123,1.16432
360.0594,0.925067
362.172,0.669672
364.109,0.444797
366.046,0.227744
368.159,0.055035
370.095,0.000121
372.032,-3.46945e-15
374.145,-3.46945e-15
376.082,-3.46945e-15
378.018,-3.46945e-15
380.131,-3.46945e-15
382.068,-3.46945e-15
384.005,-3.46945e-15
386.117,-3.46945e-15
388.054,-3.46945e-15
390.167,-3.46945e-15
392.104,-3.46945e-15
394.041,-3.46945e-15
396.153,-3.46945e-15
398.09,-3.46945e-15
400.027,-3.46945e-15
402.1397,-3.46945e-15
404.076,-3.46945e-15
406.0132,-3.46945e-15
408.126,-3.46945e-15
410.063,-3.46945e-15
412.176,-3.46945e-15
414.112,-3.46945e-15
416.049,-3.46945e-15
418.1619,-3.46945e-15
420.099,-3.46945e-15
422.0354,-3.46945e-15
424.148,-3.46945e-15
426.085,-3.46945e-15
428.022,-3.46945e-15
430.135,-3.46945e-15
432.071,-3.46945e-15
434.008,-3.46945e-15
436.121,-3.46945e-15
438.0576,-3.46945e-15
440.17,-3.46945e-15
442.107,-3.46945e-15
444.044,-3.46945e-15
446.157,-3.46945e-15
448.093,-3.46945e-15
450.03,-3.46945e-15
452.143,-3.46945e-15
454.08,-3.46945e-15
456.017,-3.46945e-15
458.129,-3.46945e-15
460.066,-3.46945e-15
462.003,-3.46945e-15
464.116,-3.46945e-15
466.052,-3.46945e-15
468.165,-3.46945e-15
470.102,-3.46945e-15
472.039,-3.46945e-15
474.152,-3.46945e-15
476.088,-3.46945e-15
478.025,-3.46945e-15
480.1379,-3.46945e-15
482.075,-3.46945e-15
484.0114,-3.46945e-15
486.124,-3.46945e-15
488.061,-3.46945e-15
490.174,-3.46945e-15
492.111,-3.46945e-15
494.047,-3.46945e-15
496.1601,-3.46945e-15
498.097,-3.46945e-15
500.0,-3.46945e-15