File: PMMA/Validation_Results/BUW-FZJ/BUW-FZJ_PMMA01_Gasification_q50_Mass_R3.csv
Time,Mass
[s],[g]
0.0,26.9794
2.1128,26.9794
4.0496,26.9792
6.1624,26.9777
8.0991,26.9723
10.0359,26.9599
12.1487,26.9447
14.0855,26.9311
16.0222,26.9163
18.135,26.8999
20.0718,26.8818
22.0085,26.8595
24.1213,26.8329
26.0581,26.8028
28.1709,26.7642
30.1077,26.7234
32.0444,26.6748
34.1572,26.6203
36.094,26.5626
38.0307,26.4967
40.1435,26.4254
42.0803,26.3523
44.017,26.2713
46.1299,26.1858
48.0666,26.1002
50.0034,26.0069
52.1162,25.91
54.0529,25.81
56.1657,25.7069
58.1025,25.6057
60.0392,25.4975
62.1521,25.3869
64.0888,25.279
66.0256,25.1643
68.1384,25.0476
70.0751,24.9345
72.0119,24.8146
74.1247,24.6931
76.0614,24.5756
78.1743,24.4461
80.111,24.3261
82.0478,24.1996
84.1606,24.0719
86.0973,23.9488
88.0341,23.8192
90.1469,23.6885
92.0837,23.5628
94.0204,23.4305
96.1332,23.2973
98.07,23.1693
100.0067,23.0347
102.1195,22.8993
104.0563,22.7633
106.1691,22.6267
108.1059,22.4954
110.0426,22.3575
112.1554,22.2191
114.0922,22.0861
116.0289,21.9466
118.1417,21.8066
120.0785,21.6721
122.0152,21.5311
124.1281,21.3896
126.0648,21.2538
128.0016,21.1114
130.1144,20.9686
132.0511,20.8253
134.1639,20.6816
136.1007,20.5438
138.0374,20.3994
140.1503,20.2546
142.087,20.1158
144.0238,19.9703
146.1366,19.8244
148.0733,19.6846
150.0101,19.5381
152.1229,19.3913
154.0596,19.2506
156.1725,19.0968
158.1092,18.9555
160.046,18.8076
162.1588,18.6593
164.0955,18.5173
166.0323,18.3685
168.1451,18.2195
170.0818,18.0767
172.0186,17.9272
174.1314,17.7774
176.0682,17.634
178.0049,17.4838
180.1177,17.3334
182.0545,17.1827
184.1673,17.0319
186.104,16.8874
188.0408,16.7361
190.1536,16.5847
192.0904,16.4396
194.0271,16.2878
196.1399,16.1357
198.0767,15.9901
200.0134,15.8377
202.1263,15.6851
204.063,15.539
206.1758,15.3794
208.1126,15.2329
210.0493,15.0796
212.1621,14.9261
214.0989,14.7792
216.0356,14.6253
218.1485,14.4713
220.0852,14.3238
222.022,14.1694
224.1348,14.0149
226.0715,13.8669
228.0083,13.7121
230.1211,13.557
232.0578,13.4086
234.1707,13.2464
236.1074,13.0976
238.0442,12.9419
240.157,12.786
242.0937,12.6367
244.0305,12.4804
246.1433,12.324
248.08,12.1742
250.0168,12.0174
252.1296,11.8604
254.0664,11.7101
256.0031,11.5528
258.1159,11.3952
260.0527,11.2375
262.1655,11.0796
264.1023,10.9283
266.039,10.7698
268.1518,10.611
270.0886,10.4586
272.0253,10.2986
274.1381,10.1376
276.0749,9.9825
278.0116,9.819
280.1245,9.6539
282.0612,9.4941
284.174,9.3176
286.1108,9.1535
288.0475,8.9792
290.1603,8.8017
292.0971,8.6285
294.0338,8.4432
296.1467,8.2542
298.0834,8.0697
300.0202,7.873
302.133,7.6724
304.0697,7.4772
306.0065,7.27
308.1193,7.06
310.056,6.8477
312.1689,6.6333
314.1056,6.4268
316.0424,6.2096
318.1552,5.9913
320.0919,5.7819
322.0287,5.5623
324.1415,5.3425
326.0783,5.1321
328.015,4.9121
330.1278,4.6923
332.0646,4.4824
334.0013,4.2633
336.1141,4.0448
338.0509,3.8271
340.1637,3.6103
342.1005,3.4038
344.0372,3.1891
346.15,2.9757
348.0868,2.7731
350.0235,2.5629
352.1363,2.3545
354.0731,2.1572
356.0098,1.9531
358.1226,1.7518
360.0594,1.5617
362.1722,1.3577
364.109,1.1741
366.0457,0.9863
368.1585,0.8032
370.0953,0.6335
372.032,0.4628
374.1449,0.3014
376.0816,0.1606
378.0184,0.0418
380.1312,0.0002
382.0679,0.0
384.0047,0.0
386.1175,0.0
388.0542,0.0
390.1671,0.0
392.1038,0.0
394.0406,0.0
396.1534,0.0
398.0901,0.0
400.0269,0.0
402.1397,0.0
404.0764,0.0
406.0132,0.0
408.126,0.0
410.0628,0.0
412.1756,0.0
414.1123,0.0
416.0491,0.0
418.1619,0.0
420.0986,0.0
422.0354,0.0
424.1482,0.0
426.085,0.0
428.0217,0.0
430.1345,0.0
432.0713,0.0
434.008,0.0
436.1208,0.0
438.0576,0.0
440.1704,0.0
442.1072,0.0
444.0439,0.0
446.1567,0.0
448.0935,0.0
450.0302,0.0
452.1431,0.0
454.0798,0.0
456.0166,0.0
458.1294,0.0
460.0661,0.0
462.0029,0.0
464.1157,0.0
466.0524,0.0
468.1653,0.0
470.102,0.0
472.0388,0.0
474.1516,0.0
476.0883,0.0
478.0251,0.0
480.1379,0.0
482.0746,0.0
484.0114,0.0
486.1242,0.0
488.061,0.0
490.1738,0.0
492.1105,0.0
494.0473,0.0
496.1601,0.0
498.0968,0.0
500.0,0.0