File: PMMA/Validation_Results/BUW-FZJ/BUW-FZJ-B_Gasification_q50_Temp_R4.csv
Time,T_back_1
[s],[K]
0.0,291.7
2.1128,291.7
4.0496,291.7
6.1624,291.7
8.0991,291.7
10.0359,291.7
12.1487,291.7
14.0855,291.7003
16.0222,291.7017
18.135,291.7059
20.0718,291.7158
22.0085,291.7369
24.1213,291.7754
26.0581,291.8352
28.1709,291.9343
30.1077,292.0638
32.0444,292.2464
34.1572,292.4848
36.094,292.7708
38.0307,293.1357
40.1435,293.5735
42.0803,294.0635
44.017,294.6528
46.1299,295.3239
48.0666,296.0427
50.0034,296.8749
52.1162,297.7903
54.0529,298.787
56.1657,299.8645
58.1025,300.9684
60.0392,302.1967
62.1521,303.4993
64.0888,304.8114
66.0256,306.2494
68.1384,307.7528
70.0751,309.2485
72.0119,310.8694
74.1247,312.5462
76.0614,314.1991
78.1743,316.054
80.111,317.799
82.0478,319.6661
84.1606,321.5748
86.0973,323.4366
88.0341,325.4185
90.1469,327.4349
92.0837,329.3936
94.0204,331.4706
96.1332,333.5762
98.07,335.615
100.0067,337.7709
102.1195,339.9504
104.0563,342.1519
106.1691,344.3745
108.1059,346.5187
110.0426,348.7785
112.1554,351.056
114.0922,353.2501
116.0289,355.5594
118.1417,357.8838
120.0785,360.1205
122.0152,362.4723
124.1281,364.8372
126.0648,367.1111
128.0016,369.5006
130.1144,371.902
132.0511,374.3144
134.1639,376.7379
136.1007,379.0658
138.0374,381.5093
140.1503,383.9628
142.087,386.3187
144.0238,388.7908
146.1366,391.2724
148.0733,393.6544
150.0101,396.1536
152.1229,398.6616
154.0596,401.0689
156.1725,403.704
158.1092,406.1278
160.046,408.6702
162.1588,411.2212
164.0955,413.6688
166.0323,416.2361
168.1451,418.8117
170.0818,421.2832
172.0186,423.8754
174.1314,426.476
176.0682,428.9714
178.0049,431.5887
180.1177,434.2147
182.0545,436.8494
184.1673,439.4927
186.104,442.0291
188.0408,444.6892
190.1536,447.3578
192.0904,449.9184
194.0271,452.6036
196.1399,455.2976
198.0767,457.8828
200.0134,460.5941
202.1263,463.3146
204.063,465.9249
206.1758,468.7818
208.1126,471.4089
210.0493,474.1638
212.1621,476.9272
214.0989,479.5783
216.0356,482.3585
218.1485,485.1472
220.0852,487.8228
222.022,490.6285
224.1348,493.4424
226.0715,496.1415
228.0083,498.9708
230.1211,501.8077
232.0578,504.5277
234.1707,507.5022
236.1074,510.2353
238.0442,513.0988
240.157,515.9692
242.0937,518.7199
244.0305,521.6005
246.1433,524.4854
248.08,527.248
250.0168,530.139
252.1296,533.0317
254.0664,535.7986
256.0031,538.6906
258.1159,541.5795
260.0527,544.4652
262.1655,547.3443
264.1023,550.0919
266.039,552.9561
268.1518,555.8116
270.0886,558.5303
272.0253,561.3558
274.1381,564.1643
276.0749,566.8335
278.0116,569.6036
280.1245,572.3506
282.0612,574.9547
284.174,577.7668
286.1108,580.3162
288.0475,582.9502
290.1603,585.547
292.0971,587.9967
294.0338,590.5229
296.1467,593.013
298.0834,595.3628
300.0202,597.7877
302.133,600.1818
304.0697,602.4475
306.0065,604.7937
308.1193,607.1227
310.056,609.4408
312.1689,611.7552
314.1056,613.9721
316.0424,616.3016
318.1552,618.6529
320.0919,620.931
322.0287,623.3535
324.1415,625.8293
326.0783,628.2584
328.015,630.8735
330.1278,633.5793
332.0646,636.2671
334.0013,639.2003
336.1141,642.2822
338.0509,645.5361
340.1637,648.995
342.1005,652.5291
344.0372,656.5064
346.15,660.8346
348.0868,665.3843
350.0235,670.6766
352.1363,676.7018
354.0731,683.4192
356.0098,691.8952
358.1226,702.9214
360.0594,718.3156
362.1722,750.7049
364.109,803.4558
366.0457,838.9323
368.1585,859.7214
370.0953,872.4692
372.032,881.5109
374.1449,887.8979
376.0816,892.4502
378.0184,896.1392
380.1312,899.0832
382.0679,901.4119
384.0047,903.4725
386.1175,905.2448
388.0542,906.8052
390.1671,908.1941
392.1038,909.3905
394.0406,910.5254
396.1534,911.558
398.0901,912.4655
400.0269,913.3416
402.1397,914.1524
404.0764,914.875
406.0132,915.5824
408.126,916.2451
410.0628,916.8423
412.1756,917.4562
414.1123,917.9884
416.0491,918.5169
418.1619,919.0185
420.0986,919.4751
422.0354,919.9314
424.1482,920.3672
426.085,920.7662
428.0217,921.1658
430.1345,921.5494
432.0713,921.9023
434.008,922.2566
436.1208,922.5986
438.0576,922.9132
440.1704,923.2449
442.1072,923.538
444.0439,923.8349
446.1567,924.1214
448.0935,924.3878
450.0302,924.6563
452.1431,924.9176
454.0798,925.1599
456.0166,925.406
458.1294,925.6448
460.0661,925.8692
462.0029,926.0974
464.1157,926.3215
466.0524,926.5399
468.1653,926.7524
470.102,926.951
472.0388,927.1534
474.1516,927.3515
476.0883,927.5352
478.0251,927.7231
480.1379,927.907
482.0746,928.0782
484.0114,928.2531
486.1242,928.4248
488.061,928.584
490.1738,928.7542
492.1105,928.9072
494.0473,929.0639
496.1601,929.2164
498.0968,929.3599
500.0,929.5048