File: PMMA/Validation_Results/BUW-FZJ/BUW-FZJ_ApproachA_Gasification_q50_Mass_R3.csv
Time,Mass
[s],[g]
0.0,26.4744
2.1128,26.4744
4.0496,26.4744
6.1624,26.4743
8.0991,26.474
10.0359,26.4733
12.1487,26.4718
14.0855,26.4695
16.0222,26.466
18.135,26.4611
20.0718,26.4553
22.0085,26.4479
24.1213,26.439
26.0581,26.429
28.1709,26.4154
30.1077,26.3998
32.0444,26.3791
34.1572,26.353
36.094,26.322
38.0307,26.2827
40.1435,26.2359
42.0803,26.1841
44.017,26.1228
46.1299,26.0545
48.0666,25.983
50.0034,25.9025
52.1162,25.8165
54.0529,25.7255
56.1657,25.63
58.1025,25.5348
60.0392,25.4317
62.1521,25.3251
64.0888,25.2203
66.0256,25.108
68.1384,24.9931
70.0751,24.881
72.0119,24.7616
74.1247,24.6402
76.0614,24.5224
78.1743,24.3921
80.111,24.2711
82.0478,24.1433
84.1606,24.014
86.0973,23.8893
88.0341,23.7577
90.1469,23.625
92.0837,23.4972
94.0204,23.3627
96.1332,23.2273
98.07,23.097
100.0067,22.9601
102.1195,22.8225
104.0563,22.6842
106.1691,22.5453
108.1059,22.4118
110.0426,22.2718
112.1554,22.1311
114.0922,21.9961
116.0289,21.8545
118.1417,21.7124
120.0785,21.576
122.0152,21.433
124.1281,21.2896
126.0648,21.152
128.0016,21.0077
130.1144,20.863
132.0511,20.718
134.1639,20.5725
136.1007,20.433
138.0374,20.2867
140.1503,20.1401
142.087,19.9995
144.0238,19.8521
146.1366,19.7043
148.0733,19.5626
150.0101,19.414
152.1229,19.265
154.0596,19.1222
156.1725,18.9659
158.1092,18.8222
160.046,18.6716
162.1588,18.5205
164.0955,18.3756
166.0323,18.2237
168.1451,18.0712
170.0818,17.925
172.0186,17.7717
174.1314,17.6178
176.0682,17.4702
178.0049,17.3153
180.1177,17.1599
182.0545,17.0039
184.1673,16.8474
186.104,16.6972
188.0408,16.5395
190.1536,16.3813
192.0904,16.2293
194.0271,16.0698
196.1399,15.9096
198.0767,15.7558
200.0134,15.5944
202.1263,15.4321
204.063,15.2763
206.1758,15.1056
208.1126,14.9483
210.0493,14.7831
212.1621,14.6171
214.0989,14.4576
216.0356,14.29
218.1485,14.1215
220.0852,13.9595
222.022,13.7893
224.1348,13.6182
226.0715,13.4536
228.0083,13.2806
230.1211,13.1067
232.0578,12.9393
234.1707,12.7556
236.1074,12.5862
238.0442,12.4082
240.157,12.2291
242.0937,12.0568
244.0305,11.8756
246.1433,11.6932
248.08,11.5176
250.0168,11.3329
252.1296,11.1469
254.0664,10.9679
256.0031,10.7794
258.1159,10.5896
260.0527,10.3983
262.1655,10.2055
264.1023,10.0198
266.039,9.8241
268.1518,9.6267
270.0886,9.4363
272.0253,9.2355
274.1381,9.0327
276.0749,8.837
278.0116,8.6302
280.1245,8.4213
282.0612,8.219
284.174,7.9958
286.1108,7.7886
288.0475,7.5693
290.1603,7.3472
292.0971,7.1319
294.0338,6.9039
296.1467,6.6727
298.0834,6.4487
300.0202,6.2115
302.133,5.9712
304.0697,5.7385
306.0065,5.4923
308.1193,5.2431
310.056,4.9911
312.1689,4.7364
314.1056,4.4906
316.0424,4.2313
318.1552,3.9698
320.0919,3.7179
322.0287,3.4527
324.1415,3.1861
326.0783,2.9301
328.015,2.6616
330.1278,2.3933
332.0646,2.1365
334.0013,1.8689
336.1141,1.604
338.0509,1.3418
340.1637,1.0828
342.1005,0.8399
344.0372,0.5935
346.15,0.3598
348.0868,0.1591
350.0235,0.0188
352.1363,0.0
354.0731,0.0
356.0098,0.0
358.1226,0.0
360.0594,0.0
362.1722,0.0
364.109,0.0
366.0457,0.0
368.1585,0.0
370.0953,0.0
372.032,0.0
374.1449,0.0
376.0816,0.0
378.0184,0.0
380.1312,0.0
382.0679,0.0
384.0047,0.0
386.1175,0.0
388.0542,0.0
390.1671,0.0
392.1038,0.0
394.0406,0.0
396.1534,0.0
398.0901,0.0
400.0269,0.0
402.1397,0.0
404.0764,0.0
406.0132,0.0
408.126,0.0
410.0628,0.0
412.1756,0.0
414.1123,0.0
416.0491,0.0
418.1619,0.0
420.0986,0.0
422.0354,0.0
424.1482,0.0
426.085,0.0
428.0217,0.0
430.1345,0.0
432.0713,0.0
434.008,0.0
436.1208,0.0
438.0576,0.0
440.1704,0.0
442.1072,0.0
444.0439,0.0
446.1567,0.0
448.0935,0.0
450.0302,0.0
452.1431,0.0
454.0798,0.0
456.0166,0.0
458.1294,0.0
460.0661,0.0
462.0029,0.0
464.1157,0.0
466.0524,0.0
468.1653,0.0
470.102,0.0
472.0388,0.0
474.1516,0.0
476.0883,0.0
478.0251,0.0
480.1379,0.0
482.0746,0.0
484.0114,0.0
486.1242,0.0
488.061,0.0
490.1738,0.0
492.1105,0.0
494.0473,0.0
496.1601,0.0
498.0968,0.0
500.0,0.0