File: PMMA/Validation_Results/BUW-FZJ/BUW-FZJ_PMMA01_Gasification_q50_Mass_R4.csv
Time,Mass
[s],[g]
0.0,25.8362
2.112818,25.8362
4.04957,25.836
6.16239,25.8345
8.09914,25.8291
10.0359,25.8167
12.1487,25.8015
14.0855,25.7879
16.0222,25.7731
18.135,25.7567
20.0718,25.7386
22.0085,25.7163
24.1213,25.6897
26.0581,25.6595
28.1709,25.621
30.1077,25.5802
32.0444,25.5316
34.1572,25.477
36.094,25.4193
38.0307,25.3534
40.1435,25.282
42.0803,25.209
44.017,25.128
46.12986,25.0424
48.06661,24.9568
50.00336,24.8635
52.1162,24.7666
54.0529,24.6665
56.1657,24.5633
58.1025,24.4621
60.0392,24.3538
62.1521,24.2431
64.0888,24.1351
66.0256,24.0202
68.1384,23.9035
70.0751,23.7901
72.0119,23.6701
74.1247,23.5484
76.0614,23.4308
78.1743,23.301
80.111,23.1808
82.0478,23.054
84.1606,22.926
86.0973,22.8026
88.0341,22.6726
90.1469,22.5416
92.0837,22.4155
94.0204,22.2828
96.13322,22.1493
98.06997,22.0208
100.007,21.8857
102.12,21.7499
104.056,21.6134
106.169,21.4763
108.106,21.3445
110.043,21.2061
112.155,21.0671
114.092,20.9336
116.029,20.7934
118.142,20.6528
120.078,20.5177
122.015,20.3761
124.128,20.2339
126.065,20.0975
128.002,19.9544
130.114,19.8109
132.051,19.6669
134.164,19.5226
136.101,19.3841
138.037,19.239
140.15,19.0934
142.087,18.9538
144.024,18.8076
146.137,18.661
148.073,18.5204
150.01,18.3731
152.1229,18.2255
154.06,18.084
156.172,17.9294
158.109,17.7873
160.046,17.6385
162.159,17.4894
164.096,17.34655
166.032,17.1969
168.1451,17.047
170.082,16.9034
172.0186,16.753
174.131,16.6024
176.068,16.4581
178.005,16.307
180.118,16.1556
182.054,16.004
184.1673,15.8522
186.104,15.7068
188.0408,15.5546
190.154,15.4021
192.09,15.2561
194.027,15.1032
196.14,14.9501
198.077,14.8035
200.013,14.65
202.126,14.4962
204.063,14.349
206.176,14.1882
208.113,14.0406
210.049,13.8861
212.162,13.7314
214.099,13.5832
216.036,13.4281
218.148,13.2728
220.085,13.1241
222.022,12.96837
224.135,12.8125
226.072,12.66316
228.008,12.5069
230.1211,12.3504
232.058,12.20052
234.171,12.0368
236.107,11.8866
238.044,11.7293
240.157,11.5719
242.094,11.4211
244.03,11.2633
246.1433,11.1053
248.08,10.9539
250.0168,10.7953
252.13,10.6365
254.066,10.4841
256.003,10.3243
258.116,10.1638
260.053,10.00231
262.1655,9.83945
264.102,9.682204
266.039,9.51607
268.152,9.347859
270.089,9.18479
272.025,9.01174
274.138,8.83568
276.075,8.66399
278.012,8.4805
280.124,8.2927
282.061,8.10953
284.174,7.905467
286.111,7.71461
288.048,7.51144
290.16,7.30487
292.097,7.10452
294.034,6.89259
296.147,6.678494
298.083,6.472064
300.02,6.25491
302.133,6.0366
304.07,5.82702
306.006,5.60731
308.1193,5.38723
310.056,5.16697
312.169,4.94667
314.106,4.7361
316.042,4.51622
318.155,4.29677
320.092,4.08743
322.029,3.86923
324.1415,3.65191
326.078,3.44498
328.015,3.22974
330.128,3.01587
332.065,2.81265
334.001,2.60183
336.114,2.39289
338.051,2.18598
340.1637,1.98129
342.1,1.78797
344.0372,1.5886
346.15,1.39228
348.087,1.20778
350.024,1.01897
352.136,0.834705
354.073,0.66367
356.01,0.49151
358.123,0.327847
360.0594,0.184141
362.172,0.053834
364.109,0.001035
366.046,0.0
368.159,0.0
370.095,0.0
372.032,0.0
374.145,0.0
376.082,0.0
378.018,0.0
380.131,0.0
382.068,0.0
384.005,0.0
386.117,0.0
388.054,0.0
390.167,0.0
392.104,0.0
394.041,0.0
396.153,0.0
398.09,0.0
400.027,0.0
402.1397,0.0
404.076,0.0
406.0132,0.0
408.126,0.0
410.063,0.0
412.176,0.0
414.112,0.0
416.049,0.0
418.1619,0.0
420.099,0.0
422.0354,0.0
424.148,0.0
426.085,0.0
428.022,0.0
430.135,0.0
432.071,0.0
434.008,0.0
436.121,0.0
438.0576,0.0
440.17,0.0
442.107,0.0
444.044,0.0
446.157,0.0
448.093,0.0
450.03,0.0
452.143,0.0
454.08,0.0
456.017,0.0
458.129,0.0
460.066,0.0
462.003,0.0
464.116,0.0
466.052,0.0
468.165,0.0
470.102,0.0
472.039,0.0
474.152,0.0
476.088,0.0
478.025,0.0
480.1379,0.0
482.075,0.0
484.0114,0.0
486.124,0.0
488.061,0.0
490.174,0.0
492.111,0.0
494.047,0.0
496.1601,0.0
498.097,0.0
500.0,0.0