File: PMMA/Validation_Results/BUW-FZJ/BUW-FZJ_C_Gasification_q50_Temp_R1.csv
Time,T_back_1
[s],[K]
0.0,290.65
2.1128,290.6499
4.0496,290.6498
6.1624,290.6502
8.0991,290.6587
10.0359,290.708
12.1487,290.8572
14.0855,291.1469
16.0222,291.6424
18.135,292.3552
20.0718,293.238
22.0085,294.3594
24.1213,295.6667
26.0581,297.0692
28.1709,298.7468
30.1077,300.4005
32.0444,302.2294
34.1572,304.1452
36.094,306.0447
38.0307,308.0883
40.1435,310.1802
42.0803,312.2162
44.017,314.3724
46.1299,316.5481
48.0666,318.6396
50.0034,320.8288
52.1162,323.0114
54.0529,325.1803
56.1657,327.3436
58.1025,329.4093
60.0392,331.5635
62.1521,333.7101
64.0888,335.7549
66.0256,337.882
68.1384,339.9968
70.0751,342.0066
72.0119,344.0932
74.1247,346.1626
76.0614,348.1256
78.1743,350.2469
80.111,352.1723
82.0478,354.1646
84.1606,356.1334
86.0973,357.9953
88.0341,359.9171
90.1469,361.8138
92.0837,363.6023
94.0204,365.4445
96.1332,367.2565
98.07,368.9595
100.0067,370.7077
102.1195,372.4196
104.0563,374.0915
106.1691,375.7259
108.1059,377.2618
110.0426,378.8457
112.1554,380.41
114.0922,381.8895
116.0289,383.4237
118.1417,384.9458
120.0785,386.3927
122.0152,387.8971
124.1281,389.3963
126.0648,390.8247
128.0016,392.3159
130.1144,393.8045
132.0511,395.294
134.1639,396.7832
136.1007,398.2108
138.0374,399.7058
140.1503,401.2071
142.087,402.6494
144.0238,404.1632
146.1366,405.6883
148.0733,407.1569
150.0101,408.7043
152.1229,410.2659
154.0596,411.7735
156.1725,413.4372
158.1092,414.9832
160.046,416.6208
162.1588,418.2825
164.0955,419.8999
166.0323,421.6215
168.1451,423.381
170.0818,425.0969
172.0186,426.9182
174.1314,428.7668
176.0682,430.5612
178.0049,432.4655
180.1177,434.4009
182.0545,436.3686
184.1673,438.3706
186.104,440.3202
188.0408,442.3966
190.1536,444.514
192.0904,446.5806
194.0271,448.7871
196.1399,451.0452
198.0767,453.2553
200.0134,455.6248
202.1263,458.058
204.063,460.4505
206.1758,463.1403
208.1126,465.6875
210.0493,468.444
212.1621,471.3106
214.0989,474.1709
216.0356,477.3032
218.1485,480.5811
220.0852,483.8548
222.022,487.428
224.1348,491.1672
226.0715,494.9062
228.0083,498.9981
230.1211,503.2918
232.0578,507.598
234.1707,512.5337
236.1074,517.2925
238.0442,522.5213
240.157,528.0333
242.0937,533.5905
244.0305,539.7553
246.1433,546.3429
248.08,553.1079
250.0168,560.8713
252.1296,569.8463
254.0664,579.3828
256.0031,587.1694
258.1159,593.4877
260.0527,598.8633
262.1655,603.5212
264.1023,607.4339
266.039,611.087
268.1518,614.3664
270.0886,617.2112
272.0253,619.9398
274.1381,622.4545
276.0749,624.6986
278.0116,626.9161
280.1245,629.0209
282.0612,630.9502
284.174,633.0005
286.1108,634.823
288.0475,636.7044
290.1603,638.5604
292.0971,640.3277
294.0338,642.1744
296.1467,644.0268
298.0834,645.8055
300.0202,647.6815
302.133,649.5862
304.0697,651.4315
306.0065,653.3973
308.1193,655.3992
310.056,657.4577
312.1689,659.5672
314.1056,661.6374
316.0424,663.8978
318.1552,666.2394
320.0919,668.5641
322.0287,671.1531
324.1415,673.91
326.0783,676.6897
328.015,679.8144
330.1278,683.3725
332.0646,687.1023
334.0013,691.5586
336.1141,696.7507
338.0509,703.2941
340.1637,712.3651
342.1005,725.9448
344.0372,756.4078
346.15,815.0845
348.0868,840.9582
350.0235,854.1764
352.1363,862.0855
354.0731,867.3768
356.0098,871.6309
358.1226,875.077
360.0594,877.8733
362.1722,880.5213
364.109,882.672
366.0457,884.6996
368.1585,886.5388
370.0953,888.1548
372.032,889.7213
374.1449,891.1746
376.0816,892.467
378.0184,893.728
380.1312,894.905
382.0679,895.9512
384.0047,896.9878
386.1175,897.9657
388.0542,898.8738
390.1671,899.7325
392.1038,900.5145
394.0406,901.2736
396.1534,902.0006
398.0901,902.6608
400.0269,903.2987
402.1397,903.9152
404.0764,904.4885
406.0132,905.0454
408.126,905.5759
410.0628,906.0468
412.1756,906.549
414.1123,906.9866
416.0491,907.4253
418.1619,907.8419
420.0986,908.2234
422.0354,908.6052
424.1482,908.97
426.085,909.3043
428.0217,909.6403
430.1345,909.9607
432.0713,910.2566
434.008,910.5526
436.1208,910.8384
438.0576,911.1008
440.1704,911.3758
442.1072,911.6198
444.0439,911.8649
446.1567,912.101
448.0935,912.3196
450.0302,912.5413
452.1431,912.7541
454.0798,912.9589
456.0166,913.1743
458.1294,913.3684
460.0661,913.5472
462.0029,913.7308
464.1157,913.8847
466.0524,914.0561
468.1653,914.2216
470.102,914.3985
472.0388,914.5555
474.1516,914.7082
476.0883,914.8472
478.0251,914.9748
480.1379,915.1164
482.0746,915.2596
484.0114,915.4049
486.1242,915.5371
488.061,915.6604
490.1738,915.7687
492.1105,915.8874
494.0473,916.0222
496.1601,916.1479
498.0968,916.2591
500.0,916.3614