File: PMMA/Validation_Results/BUW-FZJ/BUW-FZJ-B_Gasification_q50_MLR_R3.csv
Time,MLR
[s],[g/m2/s]
0.0,0.0
2.1128,0.0
4.0496,0.0
6.1624,0.0
8.0991,0.0
10.0359,0.0003
12.1487,0.0018
14.0855,0.0067
16.0222,0.0217
18.135,0.0592
20.0718,0.1358
22.0085,0.2893
24.1213,0.5599
26.0581,0.967
28.1709,1.608
30.1077,2.3761
32.0444,3.3267
34.1572,4.3647
36.094,5.3737
38.0307,6.3921
40.1435,7.339
42.0803,8.1654
44.017,8.9449
46.1299,9.6429
48.0666,10.2425
50.0034,10.8066
52.1162,11.3143
54.0529,11.7735
56.1657,12.19
58.1025,12.5538
60.0392,12.9023
62.1521,13.2218
64.0888,13.5036
66.0256,13.7759
68.1384,14.0277
70.0751,14.2515
72.0119,14.4694
74.1247,14.6724
76.0614,14.8539
78.1743,15.0393
80.111,15.1987
82.0478,15.3555
84.1606,15.5033
86.0973,15.6369
88.0341,15.7694
90.1469,15.8952
92.0837,16.0098
94.0204,16.1244
96.1332,16.2341
98.07,16.3351
100.0067,16.4369
102.1195,16.5355
104.0563,16.6312
106.1691,16.7245
108.1059,16.8119
110.0426,16.9017
112.1554,16.9902
114.0922,17.074
116.0289,17.1609
118.1417,17.2475
120.0785,17.3301
122.0152,17.4166
124.1281,17.5033
126.0648,17.5955
128.0016,17.6819
130.1144,17.7705
132.0511,17.8602
134.1639,17.9516
136.1007,18.0394
138.0374,18.1309
140.1503,18.2232
142.087,18.3116
144.0238,18.4054
146.1366,18.4992
148.0733,18.5901
150.0101,18.6839
152.1229,18.7792
154.0596,18.8708
156.1725,18.9719
158.1092,19.0652
160.046,19.1633
162.1588,19.262
164.0955,19.3562
166.0323,19.4563
168.1451,19.5581
170.0818,19.6565
172.0186,19.7598
174.1314,19.8648
176.0682,19.9668
178.0049,20.0746
180.1177,20.1839
182.0545,20.2958
184.1673,20.4071
186.104,20.5153
188.0408,20.6299
190.1536,20.7454
192.0904,20.8574
194.0271,20.9774
196.1399,21.0998
198.0767,21.2184
200.0134,21.345
202.1263,21.4743
204.063,21.5984
206.1758,21.7361
208.1126,21.8652
210.0493,22.001
212.1621,22.1383
214.0989,22.273
216.0356,22.4181
218.1485,22.566
220.0852,22.7123
222.022,22.8664
224.1348,23.0224
226.0715,23.1757
228.0083,23.3377
230.1211,23.503
232.0578,23.6641
234.1707,23.8463
236.1074,24.0173
238.0442,24.2028
240.157,24.3908
242.0937,24.5727
244.0305,24.7681
246.1433,24.9697
248.08,25.166
250.0168,25.3759
252.1296,25.5876
254.0664,25.8021
256.0031,26.0303
258.1159,26.2612
260.0527,26.4976
262.1655,26.7388
264.1023,26.9749
266.039,27.2253
268.1518,27.4798
270.0886,27.7266
272.0253,27.988
274.1381,28.2519
276.0749,28.5055
278.0116,28.7709
280.1245,29.0371
282.0612,29.2904
284.174,29.5629
286.1108,29.8086
288.0475,30.0598
290.1603,30.304
292.0971,30.5299
294.0338,30.7597
296.1467,30.9779
298.0834,31.1775
300.0202,31.3775
302.133,31.565
304.0697,31.7362
306.0065,31.9036
308.1193,32.0617
310.056,32.2101
312.1689,32.3505
314.1056,32.4756
316.0424,32.5975
318.1552,32.7117
320.0919,32.8111
322.0287,32.9057
324.1415,32.9859
326.0783,33.0515
328.015,33.1024
330.1278,33.1312
332.0646,33.1326
334.0013,33.0946
336.1141,33.0021
338.0509,32.8233
340.1637,32.5323
342.1005,32.069
344.0372,31.2427
346.15,29.7293
348.0868,26.8371
350.0235,19.1327
352.1363,0.7276
354.0731,0.0
356.0098,0.0
358.1226,0.0
360.0594,0.0
362.1722,0.0
364.109,0.0
366.0457,0.0
368.1585,0.0
370.0953,0.0
372.032,0.0
374.1449,0.0
376.0816,0.0
378.0184,0.0
380.1312,0.0
382.0679,0.0
384.0047,0.0
386.1175,0.0
388.0542,0.0
390.1671,0.0
392.1038,0.0
394.0406,0.0
396.1534,0.0
398.0901,0.0
400.0269,0.0
402.1397,0.0
404.0764,0.0
406.0132,0.0
408.126,0.0
410.0628,0.0
412.1756,0.0
414.1123,0.0
416.0491,0.0
418.1619,0.0
420.0986,0.0
422.0354,0.0
424.1482,0.0
426.085,0.0
428.0217,0.0
430.1345,0.0
432.0713,0.0
434.008,0.0
436.1208,0.0
438.0576,0.0
440.1704,0.0
442.1072,0.0
444.0439,0.0
446.1567,0.0
448.0935,0.0
450.0302,0.0
452.1431,0.0
454.0798,0.0
456.0166,0.0
458.1294,0.0
460.0661,0.0
462.0029,0.0
464.1157,0.0
466.0524,0.0
468.1653,0.0
470.102,0.0
472.0388,0.0
474.1516,0.0
476.0883,0.0
478.0251,0.0
480.1379,0.0
482.0746,0.0
484.0114,0.0
486.1242,0.0
488.061,0.0
490.1738,0.0
492.1105,0.0
494.0473,0.0
496.1601,0.0
498.0968,0.0
500.0,0.0