File: PMMA/Validation_Results/BUW-FZJ/BUW-FZJ_ApproachB_Gasification_q50_Mass_R3.csv
Time,Mass
[s],[g]
0.0,26.6818
2.112818,26.6818
4.04957,26.6818
6.16239,26.6818
8.09914,26.6818
10.0359,26.6818
12.1487,26.6818
14.0855,26.6817
16.0222,26.6816
18.135,26.6813
20.0718,26.6806
22.0085,26.679
24.1213,26.6756
26.0581,26.6699
28.1709,26.6594
30.1077,26.6444
32.0444,26.622
34.1572,26.5917
36.094,26.5551
38.0307,26.509
40.1435,26.4551
42.0803,26.3971
44.017,26.3302
46.12986,26.2576
48.06661,26.1833
50.00336,26.1012
52.1162,26.0149
54.0529,25.9248
56.1657,25.8314
58.1025,25.7392
60.0392,25.64
62.1521,25.5382
64.0888,25.4386
66.0256,25.3323
68.1384,25.224
70.0751,25.1187
72.0119,25.0068
74.1247,24.8933
76.0614,24.7833
78.1743,24.6619
80.111,24.5493
82.0478,24.4303
84.1606,24.3101
86.0973,24.1942
88.0341,24.0719
90.1469,23.9486
92.0837,23.8298
94.0204,23.7047
96.13322,23.5788
98.06997,23.4575
100.007,23.3299
102.12,23.2016
104.056,23.0725
106.169,22.9426
108.106,22.8177
110.043,22.6865
112.155,22.5546
114.092,22.4278
116.029,22.2945
118.142,22.1606
120.078,22.0318
122.015,21.8966
124.128,21.7606
126.065,21.63
128.002,21.49265
130.114,21.3546
132.051,21.2159
134.164,21.0765
136.101,20.9426
138.037,20.8018
140.15,20.6603
142.087,20.5242
144.024,20.3813
146.137,20.2377
148.073,20.0996
150.01,19.9545
152.1229,19.8086
154.06,19.6685
156.172,19.5148
158.109,19.3731
160.046,19.2243
162.159,19.0748
164.096,18.931
166.032,18.7799
168.1451,18.628
170.082,18.482
172.0186,18.3286
174.131,18.1744
176.068,18.026
178.005,17.87019
180.118,17.7135
182.054,17.5559
184.1673,17.3975
186.104,17.2451
188.0408,17.0849
190.154,16.9239
192.09,16.769
194.027,16.6061
196.14,16.4424
198.077,16.2848
200.013,16.1191
202.126,15.9524
204.063,15.792
206.176,15.616
208.113,15.4537
210.049,15.2829
212.162,15.1111
214.099,14.9457
216.036,14.7718
218.148,14.5967
220.085,14.4281
222.022,14.2506
224.135,14.072
226.072,13.9
228.008,13.7189
230.1211,13.5366
232.058,13.3609
234.171,13.168
236.107,12.9897
238.044,12.802
240.157,12.6128
242.094,12.4305
244.03,12.2384
246.1433,12.0448
248.08,11.8581
250.0168,11.6614
252.13,11.463
254.066,11.2716
256.003,11.0698
258.116,10.8662
260.053,10.6609
262.1655,10.4536
264.102,10.2536
266.039,10.0426
268.152,9.82961
270.089,9.62402
272.025,9.40712
274.138,9.18816
276.075,8.9768
278.012,8.75382
280.124,8.52875
282.061,8.31154
284.174,8.07245
286.111,7.85136
288.048,7.61829
290.16,7.38328
292.097,7.15675
294.034,6.91815
296.147,6.67781
298.083,6.44636
300.02,6.20285
302.133,5.95783
304.07,5.72214
306.006,5.47442
308.1193,5.22542
310.056,4.97525
312.169,4.72394
314.106,4.48259
316.042,4.2293
318.155,3.97509
320.092,3.73115
322.029,3.47537
324.1415,3.21891
326.078,2.97306
328.015,2.71559
330.128,2.45781
332.065,2.21113
334.001,1.95338
336.114,1.69614
338.051,1.43994
340.1637,1.18558
342.1,0.945154
344.0372,0.698712
346.15,0.461347
348.087,0.250403
350.024,0.068694
352.136,0.00022
354.073,3.46945e-15
356.01,3.46945e-15
358.123,3.46945e-15
360.0594,3.46945e-15
362.172,3.46945e-15
364.109,3.46945e-15
366.046,3.46945e-15
368.159,3.46945e-15
370.095,3.46945e-15
372.032,3.46945e-15
374.145,3.46945e-15
376.082,3.46945e-15
378.018,3.46945e-15
380.131,3.46945e-15
382.068,3.46945e-15
384.005,3.46945e-15
386.117,3.46945e-15
388.054,3.46945e-15
390.167,3.46945e-15
392.104,3.46945e-15
394.041,3.46945e-15
396.153,3.46945e-15
398.09,3.46945e-15
400.027,3.46945e-15
402.1397,3.46945e-15
404.076,3.46945e-15
406.0132,3.46945e-15
408.126,3.46945e-15
410.063,3.46945e-15
412.176,3.46945e-15
414.112,3.46945e-15
416.049,3.46945e-15
418.1619,3.46945e-15
420.099,3.46945e-15
422.0354,3.46945e-15
424.148,3.46945e-15
426.085,3.46945e-15
428.022,3.46945e-15
430.135,3.46945e-15
432.071,3.46945e-15
434.008,3.46945e-15
436.121,3.46945e-15
438.0576,3.46945e-15
440.17,3.46945e-15
442.107,3.46945e-15
444.044,3.46945e-15
446.157,3.46945e-15
448.093,3.46945e-15
450.03,3.46945e-15
452.143,3.46945e-15
454.08,3.46945e-15
456.017,3.46945e-15
458.129,3.46945e-15
460.066,3.46945e-15
462.003,3.46945e-15
464.116,3.46945e-15
466.052,3.46945e-15
468.165,3.46945e-15
470.102,3.46945e-15
472.039,3.46945e-15
474.152,3.46945e-15
476.088,3.46945e-15
478.025,3.46945e-15
480.1379,3.46945e-15
482.075,3.46945e-15
484.0114,3.46945e-15
486.124,3.46945e-15
488.061,3.46945e-15
490.174,3.46945e-15
492.111,3.46945e-15
494.047,3.46945e-15
496.1601,3.46945e-15
498.097,3.46945e-15
500.0,3.46945e-15