File: PMMA/Validation_Results/BUW-FZJ/BUW-FZJ-C_Gasification_q50_Temp_R5.csv
Time,T_back_1
[s],[K]
0.0,291.67
2.1128,291.6699
4.0496,291.6698
6.1624,291.6697
8.0991,291.67
10.0359,291.6742
12.1487,291.6942
14.0855,291.7477
16.0222,291.864
18.135,292.0664
20.0718,292.3563
22.0085,292.7709
24.1213,293.3053
26.0581,293.9272
28.1709,294.7255
30.1077,295.5612
32.0444,296.5334
34.1572,297.5992
36.094,298.6976
38.0307,299.9209
40.1435,301.2138
42.0803,302.5081
44.017,303.9151
46.1299,305.3711
48.0666,306.8038
50.0034,308.338
52.1162,309.9046
54.0529,311.498
56.1657,313.114
58.1025,314.6766
60.0392,316.3238
62.1521,317.9808
64.0888,319.5711
66.0256,321.235
68.1384,322.8962
70.0751,324.4779
72.0119,326.1289
74.1247,327.7795
76.0614,329.3567
78.1743,331.0749
80.111,332.6468
82.0478,334.2863
84.1606,335.9212
86.0973,337.4797
88.0341,339.1031
90.1469,340.7198
92.0837,342.2591
94.0204,343.8603
96.1332,345.453
98.07,346.9675
100.0067,348.5413
102.1195,350.105
104.0563,351.6578
106.1691,353.1992
108.1059,354.6626
110.0426,356.1805
112.1554,357.6863
114.0922,359.1138
116.0289,360.5936
118.1417,362.0582
120.0785,363.4457
122.0152,364.8811
124.1281,366.3012
126.0648,367.6436
128.0016,369.0296
130.1144,370.3967
132.0511,371.7435
134.1639,373.0686
136.1007,374.3146
138.0374,375.5977
140.1503,376.8645
142.087,378.0643
144.0238,379.3076
146.1366,380.5415
148.0733,381.7138
150.0101,382.9331
152.1229,384.1469
154.0596,385.3038
156.1725,386.5622
158.1092,387.7135
160.046,388.9143
162.1588,390.1146
164.0955,391.2629
166.0323,392.4642
168.1451,393.6675
170.0818,394.8199
172.0186,396.0285
174.1314,397.2405
176.0682,398.4042
178.0049,399.626
180.1177,400.8546
182.0545,402.0908
184.1673,403.3345
186.104,404.5327
188.0408,405.7945
190.1536,407.0675
192.0904,408.2965
194.0271,409.5942
196.1399,410.905
198.0767,412.1737
200.0134,413.516
202.1263,414.8765
204.063,416.1966
206.1758,417.6593
208.1126,419.0225
210.0493,420.4725
212.1621,421.9508
214.0989,423.3953
216.0356,424.9354
218.1485,426.501
220.0852,428.0215
222.022,429.6354
224.1348,431.276
226.0715,432.871
228.0083,434.5663
230.1211,436.2915
232.0578,437.9712
234.1707,439.8384
236.1074,441.583
238.0442,443.443
240.157,445.3423
242.0937,447.1979
244.0305,449.1804
246.1433,451.2102
248.08,453.1979
250.0168,455.3278
252.1296,457.5149
254.0664,459.6654
256.0031,461.9788
258.1159,464.3656
260.0527,466.8327
262.1655,469.3907
264.1023,471.9329
266.039,474.7065
268.1518,477.6112
270.0886,480.5099
272.0253,483.6707
274.1381,486.9714
276.0749,490.2655
278.0116,493.8603
280.1245,497.6218
282.0612,501.3844
284.174,505.6834
286.1108,509.8146
288.0475,514.341
290.1603,519.1012
292.0971,523.8797
294.0338,529.1313
296.1467,534.6846
298.0834,540.2872
300.0202,546.5107
302.133,553.2102
304.0697,560.2084
306.0065,568.4986
308.1193,578.0487
310.056,585.7921
312.1689,592.0336
314.1056,597.1725
316.0424,601.8173
318.1552,605.9007
320.0919,609.3858
322.0287,612.6783
324.1415,615.6662
326.0783,618.2909
328.015,620.8192
330.1278,623.1825
332.0646,625.3078
334.0013,627.4095
336.1141,629.4354
338.0509,631.3857
340.1637,633.2831
342.1005,635.063
344.0372,636.9005
346.15,638.7247
348.0868,640.4644
350.0235,642.2755
352.1363,644.1055
354.0731,645.863
356.0098,647.7176
358.1226,649.6028
360.0594,651.4287
362.1722,653.4547
364.109,655.3582
366.0457,657.3881
368.1585,659.4903
370.0953,661.5534
372.032,663.7668
374.1449,666.1098
376.0816,668.4419
378.0184,670.9663
380.1312,673.7133
382.0679,676.4845
384.0047,679.6333
386.1175,683.0426
388.0542,686.9374
390.1671,691.4066
392.1038,696.4346
394.0406,703.0804
396.1534,711.8788
398.0901,724.7702
400.0269,751.3947
402.1397,807.7888
404.0764,836.8415
406.0132,851.7593
408.126,860.5579
410.0628,866.3069
412.1756,871.0192
414.1123,874.4818
416.0491,877.5242
418.1619,880.1465
420.0986,882.3654
422.0354,884.4442
424.1482,886.3329
426.085,887.9809
428.0217,889.5715
430.1345,891.0495
432.0713,892.3647
434.008,893.6471
436.1208,894.84
438.0576,895.902
440.1704,897.0023
442.1072,897.945
444.0439,898.8595
446.1567,899.7362
448.0935,900.5201
450.0302,901.2922
452.1431,902.0218
454.0798,902.6898
456.0166,903.3346
458.1294,903.9602
460.0661,904.5327
462.0029,905.0941
464.1157,905.6284
466.0524,906.1252
468.1653,906.6095
470.102,907.0498
472.0388,907.4908
474.1516,907.9099
476.0883,908.2932
478.0251,908.6767
480.1379,909.0432
482.0746,909.3788
484.0114,909.7163
486.1242,910.038
488.061,910.3349
490.1738,910.6448
492.1105,910.9187
494.0473,911.1931
496.1601,911.4579
498.0968,911.702
500.0,911.9454