File: PMMA/Validation_Results/BUW-FZJ/BUW-FZJ_ApproachB_Gasification_q50_Temp_R1.csv
Time,T_back_1
[s],[K]
0.0,290.65
2.112818,290.65
4.04957,290.65
6.16239,290.65
8.09914,290.65
10.0359,290.65
12.1487,290.651
14.0855,290.655
16.0222,290.669
18.135,290.702
20.0718,290.765
22.0085,290.876
24.1213,291.051
26.0581,291.292
28.1709,291.651
30.1077,292.078
32.0444,292.635
34.1572,293.312
36.094,294.075
38.0307,294.998
40.1435,296.05
42.0803,297.176
44.017,298.476
46.12986,299.9
48.06661,301.375
50.00336,303.028
52.1162,304.793
54.0529,306.661
56.1657,308.627
58.1025,310.594
60.0392,312.735
62.1521,314.955
64.0888,317.148
66.0256,319.506
68.1384,321.927
70.0751,324.296
72.0119,326.823
74.1247,329.398
76.0614,331.901
78.1743,334.673
80.111,337.247
82.0478,339.969
84.1606,342.72
86.0973,345.376
88.0341,348.176
90.1469,350.996
92.0837,353.712
94.0204,356.568
96.13322,359.44
98.06997,362.2
100.007,365.097
102.12,368.007
104.056,370.926
106.169,373.855
108.106,376.665
110.043,379.61
112.155,382.562
114.092,385.391
116.029,388.355
118.142,391.325
120.078,394.171
122.015,397.151
124.128,400.136
126.065,402.994
128.002,405.987
130.114,408.984
132.051,411.984
134.164,414.988
136.101,417.864
138.037,420.875
140.15,423.889
142.087,426.775
144.024,429.796
146.137,432.82
148.073,435.715
150.01,438.746
152.1229,441.78
154.06,444.686
156.172,447.86
158.109,450.772
160.046,453.821
162.159,456.873
164.096,459.795
166.032,462.854
168.1451,465.917
170.082,468.85
172.0186,471.92
174.131,474.994
176.068,477.937
178.005,481.019
180.118,484.104
182.054,487.193
184.1673,490.285
186.104,493.246
188.0408,496.344
190.154,499.445
192.09,502.414
194.027,505.52
196.14,508.628
198.077,511.604
200.013,514.715
202.126,517.8279
204.063,520.805
206.176,524.053
208.113,527.028
210.049,530.136
212.162,533.241
214.099,536.208
216.036,539.303
218.148,542.388
220.085,545.332
222.022,548.396
224.135,551.447
226.072,554.351
228.008,557.3719
230.1211,560.373
232.058,563.221
234.171,566.302
236.107,569.1014
238.044,572
240.157,574.867
242.094,577.578
244.03,580.378
246.1433,583.139
248.08,585.742
250.0168,588.419
252.13,591.054
254.066,593.534
256.003,596.087
258.116,598.601
260.053,601.082
262.1655,603.531
264.102,605.85
266.039,608.255
268.152,610.648
270.089,612.933
272.025,615.327
274.138,617.736
276.075,620.063
278.012,622.531
280.124,625.048
282.061,627.511
284.174,630.276
286.111,632.896
288.048,635.7371
290.16,638.701
292.097,641.6711
294.034,644.943
296.147,648.417
298.083,651.964
300.02,655.951
302.133,660.289
304.07,664.842
306.006,670.137
308.1193,676.158
310.056,683.194
312.169,691.747
314.106,702.285
316.042,718.462
318.155,750.493
320.092,806.696
322.029,843.071
324.1415,863.351
326.078,875.446
328.015,883.909
330.128,889.842
332.065,894.069
334.001,897.5078
336.114,900.263
338.051,902.549
340.1637,904.4839
342.1,906.092
344.0372,907.585
346.15,908.919
348.087,910.071
350.024,911.1667
352.136,912.166
354.073,913.045
356.01,913.895
358.123,914.684
360.0594,915.388
362.172,916.107
364.109,916.724
366.046,917.333
368.159,917.909
370.095,918.429
372.032,918.946
374.145,919.437
376.082,919.886
378.018,920.333
380.131,920.761
382.068,921.1525
384.005,921.545
386.117,921.922
388.054,922.284
390.167,922.633
392.104,922.953
394.041,923.278
396.153,923.59
398.09,923.879
400.027,924.171
402.1397,924.454
404.076,924.716
406.0132,924.981
408.126,925.239
410.063,925.477
412.176,925.73
414.112,925.956
416.049,926.1859
418.1619,926.411
420.099,926.623
422.0354,926.837
424.148,927.047
426.085,927.244
428.022,927.444
430.135,927.639
432.071,927.82
434.008,928.007
436.121,928.189
438.0576,928.358
440.17,928.538
442.107,928.701
444.044,928.865
446.157,929.027
448.093,929.178
450.03,929.333
452.143,929.484
454.08,929.625
456.017,929.77
458.129,929.912
460.066,930.046
462.003,930.1825
464.116,930.316
466.052,930.447
468.165,930.577
470.102,930.698
472.039,930.822
474.152,930.943
476.088,931.058
478.025,931.176
480.1379,931.292
482.075,931.4
484.0114,931.512
486.124,931.623
488.061,931.726
490.174,931.836
492.111,931.937
494.047,932.04
496.1601,932.142
498.097,932.238
500.0,932.335