File: PMMA/Validation_Results/BUW-FZJ/BUW-FZJ_ApproachB_Gasification_q50_MLR_R4.csv
Time,MLR
[s],[g/m2/s]
0.0,0.0
2.1128,0.0
4.0496,0.0
6.1624,0.0
8.0991,0.0
10.0359,0.0003
12.1487,0.0018
14.0855,0.0067
16.0222,0.0217
18.135,0.0592
20.0718,0.1358
22.0085,0.2893
24.1213,0.5599
26.0581,0.967
28.1709,1.608
30.1077,2.3761
32.0444,3.3267
34.1572,4.3647
36.094,5.3737
38.0307,6.392
40.1435,7.339
42.0803,8.1653
44.017,8.945
46.1299,9.6429
48.0666,10.2426
50.0034,10.8068
52.1162,11.3146
54.0529,11.774
56.1657,12.1908
58.1025,12.5549
60.0392,12.9038
62.1521,13.2238
64.0888,13.5062
66.0256,13.7794
68.1384,14.0322
70.0751,14.2572
72.0119,14.4765
74.1247,14.6811
76.0614,14.8645
78.1743,15.0521
80.111,15.2139
82.0478,15.3735
84.1606,15.5244
86.0973,15.6613
88.0341,15.7976
90.1469,15.9274
92.0837,16.0464
94.0204,16.1658
96.1332,16.2807
98.07,16.387
100.0067,16.4948
102.1195,16.5996
104.0563,16.702
106.1691,16.8024
108.1059,16.8969
110.0426,16.9945
112.1554,17.0911
114.0922,17.1831
116.0289,17.2789
118.1417,17.3747
120.0785,17.4665
122.0152,17.5653
124.1281,17.6704
126.0648,17.762
128.0016,17.8622
130.1144,17.9626
132.0511,18.0628
134.1639,18.1654
136.1007,18.2653
138.0374,18.3689
140.1503,18.4738
142.087,18.5754
144.0238,18.6818
146.1366,18.789
148.0733,18.892
150.0101,19.0002
152.1229,19.1104
154.0596,19.2156
156.1725,19.333
158.1092,19.4395
160.046,19.5532
162.1588,19.667
164.0955,19.7761
166.0323,19.8935
168.1451,20.0104
170.0818,20.1251
172.0186,20.2464
174.1314,20.3689
176.0682,20.4872
178.0049,20.6137
180.1177,20.7426
182.0545,20.8712
184.1673,21.0024
186.104,21.1295
188.0408,21.2642
190.1536,21.4
192.0904,21.532
194.0271,21.6736
196.1399,21.8186
198.0767,21.9597
200.0134,22.1093
202.1263,22.2612
204.063,22.4081
206.1758,22.5723
208.1126,22.725
210.0493,22.8864
212.1621,23.0519
214.0989,23.2152
216.0356,23.3907
218.1485,23.5697
220.0852,23.7435
222.022,23.9278
224.1348,24.1168
226.0715,24.3026
228.0083,24.4988
230.1211,24.6987
232.0578,24.8983
234.1707,25.1234
236.1074,25.3328
238.0442,25.5544
240.157,25.7832
242.0937,26.0058
244.0305,26.2441
246.1433,26.4875
248.08,26.7253
250.0168,26.9785
252.1296,27.237
254.0664,27.4877
256.0031,27.7524
258.1159,28.0228
260.0527,28.2936
262.1655,28.5668
264.1023,28.8276
266.039,29.0991
268.1518,29.37
270.0886,29.6256
272.0253,29.8865
274.1381,30.143
276.0749,30.3814
278.0116,30.6221
280.1245,30.8534
282.0612,31.0649
284.174,31.2855
286.1108,31.4771
288.0475,31.6675
290.1603,31.8452
292.0971,32.0061
294.0338,32.1657
296.1467,32.3143
298.0834,32.4474
300.0202,32.5785
302.133,32.7001
304.0697,32.8088
306.0065,32.9116
308.1193,33.0024
310.056,33.0832
312.1689,33.1467
314.1056,33.1906
316.0424,33.2134
318.1552,33.2019
320.0919,33.1456
322.0287,33.0282
324.1415,32.8209
326.0783,32.4764
328.015,31.9027
330.1278,30.8634
332.0646,29.0041
334.0013,24.8093
336.1141,11.6351
338.0509,0.0
340.1637,0.0
342.1005,0.0
344.0372,0.0
346.15,0.0
348.0868,0.0
350.0235,0.0
352.1363,0.0
354.0731,0.0
356.0098,0.0
358.1226,0.0
360.0594,0.0
362.1722,0.0
364.109,0.0
366.0457,0.0
368.1585,0.0
370.0953,0.0
372.032,0.0
374.1449,0.0
376.0816,0.0
378.0184,0.0
380.1312,0.0
382.0679,0.0
384.0047,0.0
386.1175,0.0
388.0542,0.0
390.1671,0.0
392.1038,0.0
394.0406,0.0
396.1534,0.0
398.0901,0.0
400.0269,0.0
402.1397,0.0
404.0764,0.0
406.0132,0.0
408.126,0.0
410.0628,0.0
412.1756,0.0
414.1123,0.0
416.0491,0.0
418.1619,0.0
420.0986,0.0
422.0354,0.0
424.1482,0.0
426.085,0.0
428.0217,0.0
430.1345,0.0
432.0713,0.0
434.008,0.0
436.1208,0.0
438.0576,0.0
440.1704,0.0
442.1072,0.0
444.0439,0.0
446.1567,0.0
448.0935,0.0
450.0302,0.0
452.1431,0.0
454.0798,0.0
456.0166,0.0
458.1294,0.0
460.0661,0.0
462.0029,0.0
464.1157,0.0
466.0524,0.0
468.1653,0.0
470.102,0.0
472.0388,0.0
474.1516,0.0
476.0883,0.0
478.0251,0.0
480.1379,0.0
482.0746,0.0
484.0114,0.0
486.1242,0.0
488.061,0.0
490.1738,0.0
492.1105,0.0
494.0473,0.0
496.1601,0.0
498.0968,0.0
500.0,0.0