File: PMMA/Validation_Results/BUW-FZJ/BUW-FZJ_C_Gasification_q50_MLR_R5.csv
Time,MLR_CH4,MLR_CO2,MLR_Combined
[s],[g/m2/s],[g/m2/s],[g/m2/s]
0.0,0.0,0.0,0.0
2.1128,0.0007,0.003,0.0037
4.0496,0.034,0.0314,0.0654
6.1624,0.2585,0.1044,0.3629
8.0991,0.8786,0.2222,1.1008
10.0359,1.5501,0.3717,1.9219
12.1487,1.3787,0.4946,1.8733
14.0855,1.2771,0.5536,1.8307
16.0222,1.3886,0.5852,1.9738
18.135,1.6048,0.6355,2.2403
20.0718,1.8867,0.7223,2.609
22.0085,2.2459,0.8565,3.1024
24.1213,2.6623,1.0344,3.6967
26.0581,3.0984,1.2397,4.3381
28.1709,3.5992,1.4957,5.0949
30.1077,4.0665,1.7532,5.8198
32.0444,4.5505,2.0381,6.5886
34.1572,5.0205,2.3353,7.3557
36.094,5.4483,2.6229,8.0712
38.0307,5.8673,2.9229,8.7902
40.1435,6.2527,3.2171,9.4698
42.0803,6.5905,3.492,10.0824
44.017,6.9107,3.7706,10.6813
46.1299,7.1975,4.0375,11.2351
48.0666,7.441,4.2807,11.7217
50.0034,7.6718,4.5271,12.1989
52.1162,7.8748,4.7609,12.6357
54.0529,8.0527,4.982,13.0348
56.1657,8.2072,5.1914,13.3986
58.1025,8.3411,5.3854,13.7264
60.0392,8.4656,5.5805,14.046
62.1521,8.5698,5.7609,14.3307
64.0888,8.6615,5.9322,14.5937
66.0256,8.7422,6.0966,14.8388
68.1384,8.8142,6.259,15.0732
70.0751,8.8745,6.405,15.2795
72.0119,8.9271,6.5516,15.4788
74.1247,8.9745,6.6911,15.6656
76.0614,9.0123,6.8192,15.8315
78.1743,9.0496,6.9546,16.0042
80.111,9.0768,7.0708,16.1476
82.0478,9.1045,7.1905,16.295
84.1606,9.1264,7.3043,16.4307
86.0973,9.1458,7.4094,16.5552
88.0341,9.161,7.5138,16.6748
90.1469,9.1771,7.6163,16.7934
92.0837,9.186,7.7065,16.8925
94.0204,9.1995,7.8023,17.0018
96.1332,9.2051,7.8881,17.0932
98.07,9.2165,7.9757,17.1921
100.0067,9.2205,8.0557,17.2762
102.1195,9.2293,8.1388,17.3681
104.0563,9.2336,8.2156,17.4491
106.1691,9.2398,8.2894,17.5292
108.1059,9.2446,8.3589,17.6035
110.0426,9.2484,8.4285,17.6769
112.1554,9.2517,8.4932,17.7449
114.0922,9.2567,8.5555,17.8122
116.0289,9.2598,8.619,17.8787
118.1417,9.2656,8.6785,17.9441
120.0785,9.2687,8.7341,18.0028
122.0152,9.2736,8.7911,18.0647
124.1281,9.2773,8.8424,18.1197
126.0648,9.2828,8.8946,18.1774
128.0016,9.2857,8.9408,18.2265
130.1144,9.292,8.9925,18.2846
132.0511,9.2963,9.0375,18.3339
134.1639,9.3021,9.0826,18.3848
136.1007,9.306,9.1241,18.4301
138.0374,9.3116,9.1641,18.4758
140.1503,9.3174,9.2056,18.523
142.087,9.3239,9.2434,18.5673
144.0238,9.3295,9.2789,18.6084
146.1366,9.3353,9.3155,18.6508
148.0733,9.3412,9.3475,18.6886
150.0101,9.3484,9.3815,18.7299
152.1229,9.3544,9.4134,18.7678
154.0596,9.362,9.4444,18.8064
156.1725,9.3685,9.4741,18.8426
158.1092,9.3757,9.5024,18.878
160.046,9.3829,9.5308,18.9137
162.1588,9.3896,9.5571,18.9467
164.0955,9.3969,9.5828,18.9797
166.0323,9.4043,9.606,19.0104
168.1451,9.4117,9.6301,19.0418
170.0818,9.4193,9.6517,19.071
172.0186,9.4271,9.6744,19.1016
174.1314,9.4354,9.6958,19.1312
176.0682,9.4426,9.7148,19.1574
178.0049,9.4506,9.7355,19.1861
180.1177,9.4582,9.7545,19.2127
182.0545,9.4662,9.7731,19.2393
184.1673,9.4743,9.7913,19.2656
186.104,9.4818,9.8072,19.289
188.0408,9.4898,9.8233,19.3131
190.1536,9.498,9.84,19.338
192.0904,9.5059,9.8545,19.3604
194.0271,9.5148,9.8691,19.3839
196.1399,9.523,9.8831,19.4061
198.0767,9.5314,9.8961,19.4275
200.0134,9.5403,9.9096,19.4499
202.1263,9.5486,9.9224,19.471
204.063,9.5566,9.9341,19.4906
206.1758,9.5653,9.9464,19.5117
208.1126,9.574,9.9583,19.5322
210.0493,9.583,9.9694,19.5525
212.1621,9.5911,9.9775,19.5686
214.0989,9.5998,9.9916,19.5914
216.0356,9.6111,10.012,19.6231
218.1485,9.6175,10.0131,19.6306
220.0852,9.6265,10.0123,19.6388
222.022,9.6383,10.0314,19.6696
224.1348,9.647,10.0408,19.6877
226.0715,9.6564,10.0532,19.7097
228.0083,9.6653,10.0604,19.7257
230.1211,9.6744,10.0689,19.7433
232.0578,9.6853,10.0783,19.7636
234.1707,9.6949,10.0858,19.7807
236.1074,9.7044,10.0946,19.7991
238.0442,9.7157,10.1044,19.8201
240.157,9.726,10.1129,19.8388
242.0937,9.7351,10.1208,19.856
244.0305,9.7457,10.1302,19.8759
246.1433,9.7563,10.1397,19.896
248.08,9.7663,10.1489,19.9151
250.0168,9.7768,10.1587,19.9355
252.1296,9.787,10.169,19.956
254.0664,9.7964,10.1792,19.9757
256.0031,9.8063,10.1904,19.9967
258.1159,9.8156,10.202,20.0176
260.0527,9.8242,10.2138,20.038
262.1655,9.832,10.2264,20.0585
264.1023,9.8392,10.2393,20.0785
266.039,9.8461,10.2546,20.1007
268.1518,9.8521,10.2706,20.1227
270.0886,9.8568,10.2869,20.1437
272.0253,9.8606,10.3058,20.1663
274.1381,9.8631,10.3257,20.1889
276.0749,9.8647,10.3478,20.2125
278.0116,9.867,10.3732,20.2402
280.1245,9.8706,10.4017,20.2723
282.0612,9.8764,10.4321,20.3084
284.174,9.8877,10.4688,20.3565
286.1108,9.9061,10.5092,20.4153
288.0475,9.9392,10.5607,20.4999
290.1603,9.9903,10.6204,20.6107
292.0971,10.0555,10.6855,20.741
294.0338,10.1436,10.762,20.9056
296.1467,10.2504,10.8461,21.0965
298.0834,10.3715,10.9366,21.308
300.0202,10.5143,11.0426,21.5569
302.133,10.6777,11.1634,21.8411
304.0697,10.8517,11.2966,22.1483
306.0065,11.0565,11.4559,22.5124
308.1193,11.2929,11.6432,22.9361
310.056,11.5679,11.8675,23.4354
312.1689,11.8588,12.0912,23.95
314.1056,12.0972,12.2844,24.3816
316.0424,12.3527,12.5271,24.8798
318.1552,12.5999,12.7904,25.3903
320.0919,12.8127,13.0364,25.849
322.0287,13.0026,13.278,26.2806
324.1415,13.1592,13.5138,26.673
326.0783,13.2765,13.7273,27.0037
328.015,13.3636,13.928,27.2917
330.1278,13.4162,14.1218,27.538
332.0646,13.4391,14.2938,27.7328
334.0013,13.4309,14.4571,27.8879
336.1141,13.3975,14.618,28.0155
338.0509,13.3406,14.771,28.1116
340.1637,13.2544,14.9116,28.1661
342.1005,13.1578,15.0538,28.2115
344.0372,13.0326,15.1862,28.2187
346.15,12.8876,15.3293,28.2169
348.0868,12.7345,15.4665,28.201
350.0235,12.5488,15.5958,28.1446
352.1363,12.3517,15.7481,28.0997
354.0731,12.1411,15.881,28.0221
356.0098,11.8987,16.0226,27.9212
358.1226,11.6442,16.1766,27.8208
360.0594,11.3728,16.3051,27.6779
362.1722,11.0628,16.471,27.5338
364.109,10.7589,16.6181,27.377
366.0457,10.4079,16.7409,27.1487
368.1585,10.0496,16.9051,26.9547
370.0953,9.688,17.0533,26.7412
372.032,9.2709,17.1581,26.429
374.1449,8.8452,17.3006,26.1458
376.0816,8.4244,17.4333,25.8577
378.0184,7.9476,17.5104,25.458
380.1312,7.4425,17.5515,24.994
382.0679,6.9673,17.6501,24.6174
384.0047,6.4502,17.7098,24.16
386.1175,5.8936,17.6434,23.537
388.0542,5.2969,17.3993,22.6962
390.1671,4.6904,17.0446,21.7349
392.1038,4.087,16.4471,20.5341
394.0406,3.4218,15.267,18.6888
396.1534,2.6633,12.389,15.0522
398.0901,1.3799,3.3524,4.7323
400.0269,0.0,0.0,0.0
402.1397,0.0,0.0,0.0
404.0764,0.0,0.0,0.0
406.0132,0.0,0.0,0.0
408.126,0.0,0.0,0.0
410.0628,0.0,0.0,0.0
412.1756,0.0,0.0,0.0
414.1123,0.0,0.0,0.0
416.0491,0.0,0.0,0.0
418.1619,0.0,0.0,0.0
420.0986,0.0,0.0,0.0
422.0354,0.0,0.0,0.0
424.1482,0.0,0.0,0.0
426.085,0.0,0.0,0.0
428.0217,0.0,0.0,0.0
430.1345,0.0,0.0,0.0
432.0713,0.0,0.0,0.0
434.008,0.0,0.0,0.0
436.1208,0.0,0.0,0.0
438.0576,0.0,0.0,0.0
440.1704,0.0,0.0,0.0
442.1072,0.0,0.0,0.0
444.0439,0.0,0.0,0.0
446.1567,0.0,0.0,0.0
448.0935,0.0,0.0,0.0
450.0302,0.0,0.0,0.0
452.1431,0.0,0.0,0.0
454.0798,0.0,0.0,0.0
456.0166,0.0,0.0,0.0
458.1294,0.0,0.0,0.0
460.0661,0.0,0.0,0.0
462.0029,0.0,0.0,0.0
464.1157,0.0,0.0,0.0
466.0524,0.0,0.0,0.0
468.1653,0.0,0.0,0.0
470.102,0.0,0.0,0.0
472.0388,0.0,0.0,0.0
474.1516,0.0,0.0,0.0
476.0883,0.0,0.0,0.0
478.0251,0.0,0.0,0.0
480.1379,0.0,0.0,0.0
482.0746,0.0,0.0,0.0
484.0114,0.0,0.0,0.0
486.1242,0.0,0.0,0.0
488.061,0.0,0.0,0.0
490.1738,0.0,0.0,0.0
492.1105,0.0,0.0,0.0
494.0473,0.0,0.0,0.0
496.1601,0.0,0.0,0.0
498.0968,0.0,0.0,0.0
500.0,0.0,0.0,0.0