File: PMMA/Validation_Results/BUW-FZJ/BUW-FZJ_PMMA01_Gasification_q50_Temp_R5.csv
Time,T_back_1
[s],[K]
0.0,291.67
2.112818,291.67
4.04957,291.67
6.16239,291.67
8.09914,291.67
10.0359,291.674
12.1487,291.694
14.0855,291.748
16.0222,291.864
18.135,292.066
20.0718,292.356
22.0085,292.771
24.1213,293.305
26.0581,293.927
28.1709,294.726
30.1077,295.561
32.0444,296.533
34.1572,297.599
36.094,298.698
38.0307,299.921
40.1435,301.214
42.0803,302.508
44.017,303.915
46.12986,305.371
48.06661,306.804
50.00336,308.338
52.1162,309.905
54.0529,311.498
56.1657,313.114
58.1025,314.677
60.0392,316.324
62.1521,317.981
64.0888,319.571
66.0256,321.235
68.1384,322.896
70.0751,324.478
72.0119,326.129
74.1247,327.78
76.0614,329.357
78.1743,331.075
80.111,332.647
82.0478,334.286
84.1606,335.921
86.0973,337.48
88.0341,339.103
90.1469,340.72
92.0837,342.259
94.0204,343.86
96.13322,345.453
98.06997,346.968
100.007,348.541
102.12,350.105
104.056,351.658
106.169,353.199
108.106,354.663
110.043,356.181
112.155,357.686
114.092,359.114
116.029,360.594
118.142,362.058
120.078,363.446
122.015,364.881
124.128,366.301
126.065,367.644
128.002,369.03
130.114,370.397
132.051,371.744
134.164,373.069
136.101,374.315
138.037,375.598
140.15,376.865
142.087,378.064
144.024,379.3076
146.137,380.542
148.073,381.714
150.01,382.933
152.1229,384.147
154.06,385.304
156.172,386.562
158.109,387.713
160.046,388.914
162.159,390.115
164.096,391.263
166.032,392.464
168.1451,393.667
170.082,394.82
172.0186,396.0285
174.131,397.2405
176.068,398.404
178.005,399.626
180.118,400.8546
182.054,402.091
184.1673,403.334
186.104,404.533
188.0408,405.794
190.154,407.067
192.09,408.297
194.027,409.594
196.14,410.905
198.077,412.174
200.013,413.516
202.126,414.877
204.063,416.197
206.176,417.659
208.113,419.022
210.049,420.472
212.162,421.951
214.099,423.395
216.036,424.935
218.148,426.501
220.085,428.021
222.022,429.635
224.135,431.276
226.072,432.871
228.008,434.566
230.1211,436.292
232.058,437.971
234.171,439.838
236.107,441.583
238.044,443.443
240.157,445.342
242.094,447.198
244.03,449.18
246.1433,451.21
248.08,453.198
250.0168,455.328
252.13,457.515
254.066,459.665
256.003,461.979
258.116,464.366
260.053,466.833
262.1655,469.391
264.102,471.933
266.039,474.706
268.152,477.611
270.089,480.51
272.025,483.671
274.138,486.971
276.075,490.266
278.012,493.86
280.124,497.622
282.061,501.384
284.174,505.683
286.111,509.815
288.048,514.341
290.16,519.101
292.097,523.88
294.034,529.131
296.147,534.685
298.083,540.287
300.02,546.511
302.133,553.21
304.07,560.2084
306.006,568.499
308.1193,578.049
310.056,585.792
312.169,592.034
314.106,597.172
316.042,601.817
318.155,605.901
320.092,609.386
322.029,612.678
324.1415,615.6662
326.078,618.2909
328.015,620.819
330.128,623.1825
332.065,625.3078
334.001,627.41
336.114,629.435
338.051,631.386
340.1637,633.283
342.1,635.063
344.0372,636.9
346.15,638.725
348.087,640.464
350.024,642.276
352.136,644.106
354.073,645.863
356.01,647.718
358.123,649.603
360.0594,651.429
362.172,653.455
364.109,655.358
366.046,657.388
368.159,659.49
370.095,661.553
372.032,663.767
374.145,666.11
376.082,668.4419
378.018,670.966
380.131,673.713
382.068,676.485
384.005,679.633
386.117,683.043
388.054,686.937
390.167,691.407
392.104,696.435
394.041,703.0804
396.153,711.879
398.09,724.77
400.027,751.395
402.1397,807.789
404.076,836.841
406.0132,851.759
408.126,860.558
410.063,866.307
412.176,871.019
414.112,874.482
416.049,877.524
418.1619,880.1465
420.099,882.365
422.0354,884.444
424.148,886.3329
426.085,887.981
428.022,889.572
430.135,891.049
432.071,892.365
434.008,893.647
436.121,894.84
438.0576,895.902
440.17,897.002
442.107,897.945
444.044,898.86
446.157,899.736
448.093,900.52
450.03,901.292
452.143,902.022
454.08,902.69
456.017,903.335
458.129,903.96
460.066,904.533
462.003,905.094
464.116,905.628
466.052,906.125
468.165,906.61
470.102,907.05
472.039,907.491
474.152,907.91
476.088,908.293
478.025,908.6767
480.1379,909.043
482.075,909.379
484.0114,909.716
486.124,910.038
488.061,910.335
490.174,910.645
492.111,910.919
494.047,911.193
496.1601,911.458
498.097,911.702
500.0,911.945