File: PMMA/Validation_Results/BUW-FZJ/BUW-FZJ_ApproachA_Gasification_q50_Temp_R3.csv
Time,T_back_1
[s],[K]
0.0,291.2
2.112818,291.2
4.04957,291.2
6.16239,291.2
8.09914,291.2
10.0359,291.2
12.1487,291.2
14.0855,291.2
16.0222,291.2
18.135,291.201
20.0718,291.202
22.0085,291.206
24.1213,291.214
26.0581,291.228
28.1709,291.255
30.1077,291.292
32.0444,291.35
34.1572,291.43
36.094,291.533
38.0307,291.67
40.1435,291.844
42.0803,292.047
44.017,292.302
46.12986,292.603
48.06661,292.936
50.00336,293.334
52.1162,293.784
54.0529,294.289
56.1657,294.849
58.1025,295.436
60.0392,296.104
62.1521,296.829
64.0888,297.574
66.0256,298.406
68.1384,299.292
70.0751,300.19
72.0119,301.18
74.1247,302.22
76.0614,303.262
78.1743,304.449
80.111,305.581
82.0478,306.809
84.1606,308.082
86.0973,309.339
88.0341,310.693
90.1469,312.086
92.0837,313.455
94.0204,314.922
96.13322,316.425
98.06997,317.894
100.007,319.463
102.12,321.064
104.056,322.696
106.169,324.358
108.106,325.976
110.043,327.694
112.155,329.44
114.092,331.135
116.029,332.932
118.142,334.754
120.078,336.52
122.015,338.39
124.128,340.283
126.065,342.115
128.002,344.052
130.114,346.011
132.051,347.992
134.164,349.994
136.101,351.928
138.037,353.97
140.15,356.033
142.087,358.025
144.024,360.126
146.137,362.247
148.073,364.294
150.01,366.453
152.1229,368.631
154.06,370.732
156.172,373.043
158.109,375.18
160.046,377.432
162.159,379.703
164.096,381.8916
166.032,384.198
168.1451,386.523
170.082,388.764
172.0186,391.124
174.131,393.503
176.068,395.795
178.005,398.209
180.118,400.641
182.054,403.091
184.1673,405.56
186.104,407.938
188.0408,410.442
190.154,412.964
192.09,415.394
194.027,417.9511
196.14,420.527
198.077,423.009
200.013,425.6205
202.126,428.251
204.063,430.784
206.176,433.567
208.113,436.136
210.049,438.839
212.162,441.562
214.099,444.183
216.036,446.942
218.148,449.721
220.085,452.396
222.022,455.212
224.135,458.048
226.072,460.778
228.008,463.652
230.1211,466.547
232.058,469.335
234.171,472.397
236.107,475.225
238.044,478.202
240.157,481.201
242.094,484.09
244.03,487.1337
246.1433,490.2
248.08,493.155
250.0168,496.269
252.13,499.407
254.066,502.433
256.003,505.623
258.116,508.84
260.053,512.0842
262.1655,515.357
264.102,518.513
266.039,521.841
268.152,525.199
270.089,528.438
272.025,531.853
274.138,535.296
276.075,538.614
278.012,542.106
280.124,545.622
282.061,549.004
284.174,552.714
286.111,556.133
288.048,559.722
290.16,563.318
292.097,566.7641
294.034,570.372
296.147,573.981
298.083,577.434
300.02,581.041
302.133,584.6405
304.07,588.075
306.006,591.647
308.1193,595.203
310.056,598.744
312.169,602.2705
314.106,605.631
316.042,609.135
318.155,612.633
320.092,615.978
322.029,619.48
324.1415,622.998
326.078,626.3854
328.015,629.963
330.128,633.594
332.065,637.133
334.001,640.919
336.114,644.815
338.051,648.842
340.1637,653.023
342.1,657.203
344.0372,661.813
346.15,666.702
348.087,671.743
350.024,677.395
352.136,683.758
354.073,690.579
356.01,698.834
358.123,709.383
360.0594,722.353
362.172,746.414
364.109,784.364
366.046,799.765
368.159,808.346
370.095,814.977
372.032,820.533
374.145,825.095
376.082,828.809
378.018,832.183
380.131,835.162
382.068,837.713
384.005,840.12
386.117,842.304
388.054,844.311
390.167,846.16
392.104,847.8029
394.041,849.412
396.153,850.921
398.09,852.276
400.027,853.612
402.1397,854.872
404.076,856.016
406.0132,857.151
408.126,858.229
410.063,859.214
412.176,860.238
414.112,861.136
416.049,862.035
418.1619,862.899
420.099,863.692
422.0354,864.491
424.148,865.257
426.085,865.964
428.022,866.679
430.135,867.368
432.071,868.005
434.008,868.651
436.121,869.277
438.0576,869.86
440.17,870.479
442.107,871.03
444.044,871.5875
446.157,872.13
448.093,872.637
450.03,873.148
452.143,873.647
454.08,874.113
456.017,874.585
458.129,875.046
460.066,875.476
462.003,875.914
464.116,876.341
466.052,876.759
468.165,877.164
470.102,877.545
472.039,877.933
474.152,878.313
476.088,878.667
478.025,879.032
480.1379,879.387
482.075,879.72
484.0114,880.063
486.124,880.395
488.061,880.71
490.174,881.046
492.111,881.345
494.047,881.657
496.1601,881.957
498.097,882.243
500.0,882.533