File: PMMA/Validation_Results/Aalto-I-PMMA-Gasification/Aalto_I_PMMA_Gasification_q50_Mass.csv
Time,Mass
s,g
0,25.64
2,25.64
4,25.64
6.1,25.64
8.1,25.64
10.1,25.64
12.1,25.64
14.1,25.63
16.1,25.62
18.1,25.61
20,25.60
22,25.58
24,25.56
26,25.54
28,25.52
30,25.49
32,25.46
34,25.42
36,25.38
38,25.33
40,25.28
42,25.21
44,25.15
46,25.07
48,25.00
50,24.92
52,24.83
54,24.75
56,24.66
58,24.57
60,24.47
62,24.37
64,24.27
66,24.17
68,24.07
70,23.96
72,23.86
74,23.75
76.1,23.64
78.1,23.52
80.1,23.41
82.1,23.29
84.1,23.18
86.1,23.06
88.1,22.94
90.1,22.82
92.1,22.70
94.1,22.58
96.1,22.46
98.1,22.33
100.1,22.21
102.1,22.08
104.1,21.95
106.1,21.82
108.1,21.69
110.1,21.56
112.1,21.43
114.1,21.30
116.1,21.16
118.1,21.03
120.1,20.89
122.1,20.75
124.1,20.61
126.1,20.47
128.1,20.33
130.1,20.19
132.1,20.05
134.1,19.90
136.1,19.76
138.1,19.61
140.1,19.47
142.1,19.32
144.1,19.17
146.1,19.02
148.1,18.87
150.1,18.71
152.1,18.56
154.1,18.41
156.1,18.25
158.1,18.09
160.1,17.94
162.1,17.78
164.1,17.62
166.1,17.46
168.1,17.29
170.1,17.13
172.1,16.97
174.1,16.80
176.1,16.64
178.1,16.47
180.1,16.30
182.1,16.13
184.1,15.96
186.1,15.79
188.1,15.62
190.1,15.45
192.1,15.28
194.1,15.10
196.1,14.93
198.1,14.76
200.1,14.58
202.1,14.40
204.1,14.23
206.1,14.05
208.1,13.87
210.1,13.69
212.1,13.52
214.1,13.34
216.1,13.16
218.1,12.98
220.1,12.80
222.1,12.61
224.1,12.43
226.1,12.25
228.1,12.07
230.1,11.88
232.1,11.70
234.1,11.51
236.1,11.32
238.1,11.13
240.1,10.94
242.1,10.75
244.1,10.56
246.1,10.37
248.1,10.17
250.1,9.98
252.1,9.78
254.1,9.58
256.1,9.38
258.1,9.18
260.1,8.98
262.1,8.78
264.1,8.58
266.1,8.38
268.1,8.17
270.1,7.97
272.1,7.76
274.1,7.56
276.1,7.35
278.1,7.15
280.1,6.94
282.1,6.73
284.1,6.52
286.1,6.32
288.1,6.11
290.1,5.90
292.1,5.69
294.1,5.48
296.1,5.27
298.1,5.06
300.1,4.85
302,4.64
304,4.44
306,4.23
308,4.01
310,3.80
312,3.59
314,3.38
316,3.17
318,2.95
320,2.74
322,2.53
324,2.32
326,2.11
328,1.90
330,1.69
332,1.49
334,1.28
336,1.08
338,0.88
340,0.69
342,0.51
344,0.33
346,0.18
348,0.04
350,0.00
352,0.00
354,0.00
356,0.00
358,0.00
360,0.00
362,0.00
364,0.00
366,0.00
368,0.00
370,0.00
372,0.00
374,0.00
376,0.00
378,0.00
380,0.00
382,0.00
384,0.00
386,0.00
388,0.00
390,0.00
392,0.00
394,0.00
396,0.00
398,0.00
400,0.00
402,0.00
404,0.00
406,0.00
408,0.00
410,0.00
412,0.00
414,0.00
416,0.00
418,0.00
420,0.00
422,0.00
424,0.00
426,0.00
428,0.00
430,0.00
432,0.00
434,0.00
436,0.00
438,0.00
440,0.00
442,0.00
444,0.00
446,0.00
448,0.00
450,0.00
452,0.00
454,0.00
456,0.00
458,0.00
460,0.00
462,0.00
464,0.00
466,0.00
468,0.00
470,0.00
472,0.00
474,0.00
476,0.00
478,0.00
480,0.00
482,0.00
484,0.00
486,0.00
488,0.00
490,0.00
492,0.00
494,0.00
496,0.00
498,0.00
500,0.00