File: PMMA/Calibration_Results/NIST_FSRI/NIST_Props/NIST_FSRI_Gasification_q50_T1_Temp.csv
Time,T_back
[s],[K]
0.0,292.1
2.0,292.1
4.0,292.1
6.0,292.1
8.0,292.1
10.0,292.1
12.0,292.1
14.0,292.1
16.0,292.1
18.0,292.1
20.0,292.2
22.0,292.3
24.0,292.4
26.0,292.7
28.0,293.0
30.0,293.4
32.0,293.8
34.0,294.4
36.0,295.1
38.0,295.9
40.0,296.8
42.0,297.8
44.0,298.9
46.0,300.1
48.0,301.4
50.0,302.8
52.0,304.3
54.0,305.9
56.0,307.6
58.0,309.4
60.0,311.2
62.0,313.2
64.0,315.2
66.0,317.2
68.0,319.4
70.0,321.6
72.0,323.8
74.0,326.1
76.0,328.4
78.0,330.8
80.0,333.2
82.0,335.7
84.0,338.1
86.0,340.6
88.0,343.2
90.0,345.7
92.0,348.3
94.0,350.8
96.0,353.4
98.0,356.0
100.0,358.6
102.0,361.3
104.0,363.9
106.0,366.5
108.0,369.1
110.0,371.7
112.0,374.4
114.0,377.0
116.0,379.6
118.0,382.2
120.0,384.9
122.0,387.5
124.0,390.1
126.0,392.7
128.0,395.3
130.0,397.8
132.0,400.4
134.0,403.0
136.0,405.6
138.0,408.1
140.0,410.7
142.0,413.2
144.0,415.7
146.0,418.3
148.0,420.8
150.0,423.3
152.0,425.8
154.0,428.3
156.0,430.8
158.0,433.3
160.0,435.8
162.0,438.2
164.0,440.7
166.0,443.1
168.0,445.6
170.0,448.0
172.0,450.4
174.0,452.8
176.0,455.3
178.0,457.7
180.0,460.1
182.0,462.4
184.0,464.8
186.0,467.2
188.0,469.6
190.0,471.9
192.0,474.3
194.0,476.6
196.0,479.0
198.0,481.3
200.0,483.6
202.0,485.9
204.0,488.3
206.0,490.6
208.0,492.9
210.0,495.2
212.0,497.4
214.0,499.7
216.0,502.0
218.0,504.3
220.0,506.5
222.0,508.8
224.0,511.0
226.0,513.3
228.0,515.5
230.0,517.7
232.0,519.9
234.0,522.1
236.0,524.3
238.0,526.5
240.0,528.7
242.0,530.9
244.0,533.1
246.0,535.2
248.0,537.4
250.0,539.5
252.0,541.7
254.0,543.8
256.0,545.9
258.0,548.0
260.0,550.1
262.0,552.1
264.0,554.2
266.0,556.2
268.0,558.3
270.0,560.3
272.0,562.3
274.0,564.2
276.0,566.2
278.0,568.1
280.0,570.1
282.0,572.0
284.0,573.8
286.0,575.7
288.0,577.5
290.0,579.4
292.0,581.2
294.0,582.9
296.0,584.7
298.0,586.4
300.0,588.1
302.0,589.8
304.0,591.4
306.0,593.1
308.0,594.7
310.0,596.3
312.0,597.8
314.0,599.4
316.0,600.9
318.0,602.4
320.0,603.9
322.0,605.4
324.0,606.9
326.0,608.3
328.0,609.8
330.0,611.2
332.0,612.7
334.0,614.1
336.0,615.6
338.0,617.0
340.0,618.5
342.0,620.0
344.0,621.5
346.0,623.0
348.0,624.6
350.0,626.1
352.0,627.7
354.0,629.4
356.0,631.0
358.0,632.8
360.0,634.5
362.0,636.4
364.0,638.2
366.0,640.2
368.0,642.2
370.0,644.3
372.0,646.5
374.0,648.8
376.0,651.3
378.0,653.8
380.0,656.5
382.0,659.4
384.0,662.5
386.0,665.9
388.0,669.5
390.0,673.5
392.0,678.0
394.0,683.2
396.0,689.2
398.0,696.6
400.0,706.3
402.0,721.1
404.0,755.7
406.0,791.2
408.0,818.0
410.0,831.7
412.0,840.6
414.0,847.0
416.0,851.9
418.0,855.8
420.0,859.0
422.0,861.7
424.0,864.1
426.0,866.1
428.0,868.0
430.0,869.6
432.0,871.1
434.0,872.4
436.0,873.6
438.0,874.8
440.0,875.8
442.0,876.8
444.0,877.7
446.0,878.5
448.0,879.3
450.0,880.1
452.0,880.8
454.0,881.4
456.0,882.1
458.0,882.7
460.0,883.2
462.0,883.8
464.0,884.3
466.0,884.8
468.0,885.3
470.0,885.8
472.0,886.2
474.0,886.6
476.0,887.0
478.0,887.4
480.0,887.8
482.0,888.2
484.0,888.5
486.0,888.9
488.0,889.2
490.0,889.5
492.0,889.9
494.0,890.2
496.0,890.5
498.0,890.7
500.0,891.0