File: PMMA/Calibration_Results/NIST_FSRI/NIST_Props/NIST_FSRI_Gasification_q50_T2_Temp.csv
Time,T_back
[s],[K]
0,292.6
2,292.6
4,292.6
6,292.6
8,292.6
10,292.6
12,292.6
14,292.6
16,292.6
18,292.6
20,292.6
22,292.7
24,292.8
26,293.0
28,293.2
30,293.5
32,293.9
34,294.4
36,294.9
38,295.5
40,296.3
42,297.1
44,298.1
46,299.1
48,300.2
50,301.4
52,302.7
54,304.1
56,305.6
58,307.2
60,308.8
62,310.6
64,312.3
66,314.2
68,316.1
70,318.1
72,320.1
74,322.2
76,324.4
78,326.5
80,328.8
82,331.0
84,333.3
86,335.6
88,338.0
90,340.3
92,342.7
94,345.1
96,347.6
98,350.0
100,352.5
102,354.9
104,357.4
106,359.9
108,362.4
110,364.9
112,367.4
114,369.9
116,372.4
118,374.9
120,377.4
122,379.9
124,382.3
126,384.8
128,387.3
130,389.8
132,392.3
134,394.8
136,397.2
138,399.7
140,402.2
142,404.6
144,407.1
146,409.5
148,412.0
150,414.4
152,416.8
154,419.3
156,421.7
158,424.1
160,426.5
162,428.9
164,431.3
166,433.7
168,436.1
170,438.4
172,440.8
174,443.2
176,445.5
178,447.9
180,450.2
182,452.5
184,454.9
186,457.2
188,459.5
190,461.8
192,464.2
194,466.5
196,468.8
198,471.1
200,473.3
202,475.6
204,477.9
206,480.2
208,482.4
210,484.7
212,487.0
214,489.2
216,491.5
218,493.7
220,495.9
222,498.2
224,500.4
226,502.6
228,504.8
230,507.0
232,509.3
234,511.4
236,513.6
238,515.8
240,518.0
242,520.2
244,522.4
246,524.5
248,526.7
250,528.8
252,531.0
254,533.1
256,535.2
258,537.4
260,539.5
262,541.6
264,543.7
266,545.8
268,547.8
270,549.9
272,551.9
274,554.0
276,556.0
278,558.0
280,560.0
282,562.0
284,563.9
286,565.9
288,567.8
290,569.7
292,571.6
294,573.5
296,575.4
298,577.2
300,579.0
302,580.8
304,582.6
306,584.3
308,586.1
310,587.8
312,589.4
314,591.1
316,592.7
318,594.3
320,595.9
322,597.5
324,599.1
326,600.6
328,602.1
330,603.6
332,605.1
334,606.6
336,608.0
338,609.5
340,611.0
342,612.4
344,613.9
346,615.3
348,616.8
350,618.3
352,619.8
354,621.3
356,622.8
358,624.3
360,625.9
362,627.5
364,629.2
366,630.9
368,632.6
370,634.4
372,636.2
374,638.1
376,640.0
378,642.1
380,644.2
382,646.4
384,648.7
386,651.1
388,653.7
390,656.4
392,659.3
394,662.4
396,665.8
398,669.5
400,673.5
402,678.0
404,683.2
406,689.2
408,696.7
410,706.5
412,721.5
414,757.3
416,792.9
418,819.5
420,833.2
422,842.1
424,848.5
426,853.4
428,857.3
430,860.5
432,863.3
434,865.6
436,867.7
438,869.5
440,871.1
442,872.6
444,874.0
446,875.2
448,876.3
450,877.4
452,878.3
454,879.2
456,880.1
458,880.9
460,881.6
462,882.3
464,883.0
466,883.6
468,884.2
470,884.8
472,885.4
474,885.9
476,886.4
478,886.9
480,887.3
482,887.8
484,888.2
486,888.6
488,889.0
490,889.4
492,889.7
494,890.1
496,890.4
498,890.8
500,891.1