File: PMMA/Calibration_Results/NIST_FSRI/NIST_Props/NIST_FSRI_Gasification_q25_T1_Temp.csv
Time,T_back
[s],[K]
0,294.5
2,294.5
4,294.5
6,294.5
8,294.5
10,294.5
12,294.5
14,294.5
16,294.6
18,294.6
20,294.8
22,295.0
24,295.2
26,295.6
28,296.0
30,296.5
32,297.2
34,297.9
36,298.7
38,299.6
40,300.6
42,301.7
44,302.9
46,304.2
48,305.5
50,306.9
52,308.4
54,310.0
56,311.6
58,313.3
60,315.0
62,316.8
64,318.6
66,320.4
68,322.3
70,324.3
72,326.2
74,328.2
76,330.2
78,332.3
80,334.3
82,336.4
84,338.5
86,340.6
88,342.7
90,344.9
92,347.0
94,349.2
96,351.3
98,353.5
100,355.7
102,357.9
104,360.0
106,362.2
108,364.4
110,366.6
112,368.7
114,370.9
116,373.1
118,375.2
120,377.4
122,379.6
124,381.7
126,383.8
128,386.0
130,388.1
132,390.2
134,392.3
136,394.4
138,396.5
140,398.6
142,400.7
144,402.7
146,404.8
148,406.8
150,408.8
152,410.9
154,412.9
156,414.9
158,416.8
160,418.8
162,420.8
164,422.7
166,424.6
168,426.6
170,428.5
172,430.3
174,432.2
176,434.1
178,435.9
180,437.8
182,439.6
184,441.4
186,443.2
188,445.0
190,446.7
192,448.5
194,450.2
196,452.0
198,453.7
200,455.4
202,457.1
204,458.7
206,460.4
208,462.0
210,463.6
212,465.3
214,466.9
216,468.4
218,470.0
220,471.6
222,473.1
224,474.6
226,476.2
228,477.7
230,479.1
232,480.6
234,482.1
236,483.5
238,485.0
240,486.4
242,487.8
244,489.2
246,490.6
248,491.9
250,493.3
252,494.6
254,495.9
256,497.3
258,498.6
260,499.9
262,501.1
264,502.4
266,503.7
268,504.9
270,506.1
272,507.3
274,508.5
276,509.7
278,510.9
280,512.1
282,513.2
284,514.4
286,515.5
288,516.6
290,517.8
292,518.9
294,519.9
296,521.0
298,522.1
300,523.1
302,524.2
304,525.2
306,526.2
308,527.2
310,528.2
312,529.2
314,530.2
316,531.2
318,532.1
320,533.1
322,534.0
324,534.9
326,535.9
328,536.8
330,537.7
332,538.5
334,539.4
336,540.3
338,541.1
340,542.0
342,542.8
344,543.6
346,544.4
348,545.2
350,546.0
352,546.8
354,547.6
356,548.3
358,549.1
360,549.8
362,550.6
364,551.3
366,552.0
368,552.7
370,553.4
372,554.1
374,554.7
376,555.4
378,556.1
380,556.7
382,557.4
384,558.0
386,558.6
388,559.2
390,559.8
392,560.4
394,561.0
396,561.6
398,562.2
400,562.7
402,563.3
404,563.8
406,564.4
408,564.9
410,565.4
412,566.0
414,566.5
416,567.0
418,567.5
420,568.0
422,568.4
424,568.9
426,569.4
428,569.9
430,570.3
432,570.8
434,571.2
436,571.6
438,572.1
440,572.5
442,572.9
444,573.3
446,573.8
448,574.2
450,574.6
452,575.0
454,575.4
456,575.7
458,576.1
460,576.5
462,576.9
464,577.2
466,577.6
468,578.0
470,578.3
472,578.7
474,579.0
476,579.4
478,579.7
480,580.1
482,580.4
484,580.7
486,581.1
488,581.4
490,581.7
492,582.1
494,582.4
496,582.7
498,583.0
500,583.3