File: PMMA/Calibration_Results/NIST_FSRI/NIST_Props/NIST_FSRI_Gasification_q50_R4_Mass.csv
Time,Mass
[s],[g]
0.0,25.643
2.0,25.643
4.0,25.643
6.0,25.643
8.0,25.643
10.0,25.643
12.0,25.643
14.0,25.643
16.0,25.643
18.0,25.643
20.0,25.643
22.0,25.643
24.0,25.643
26.0,25.642
28.0,25.642
30.0,25.641
32.0,25.640
34.0,25.637
36.0,25.633
38.0,25.628
40.0,25.621
42.0,25.610
44.0,25.597
46.0,25.580
48.0,25.560
50.0,25.535
52.0,25.507
54.0,25.474
56.0,25.438
58.0,25.398
60.0,25.354
62.0,25.307
64.0,25.257
66.0,25.204
68.0,25.148
70.0,25.090
72.0,25.029
74.0,24.966
76.0,24.900
78.0,24.833
80.0,24.763
82.0,24.692
84.0,24.619
86.0,24.544
88.0,24.468
90.0,24.390
92.0,24.310
94.0,24.230
96.0,24.148
98.0,24.064
100.0,23.980
102.0,23.894
104.0,23.807
106.0,23.719
108.0,23.630
110.0,23.540
112.0,23.448
114.0,23.356
116.0,23.263
118.0,23.169
120.0,23.073
122.0,22.977
124.0,22.880
126.0,22.782
128.0,22.683
130.0,22.584
132.0,22.483
134.0,22.382
136.0,22.280
138.0,22.177
140.0,22.073
142.0,21.968
144.0,21.863
146.0,21.756
148.0,21.649
150.0,21.541
152.0,21.432
154.0,21.323
156.0,21.213
158.0,21.102
160.0,20.990
162.0,20.877
164.0,20.764
166.0,20.650
168.0,20.535
170.0,20.419
172.0,20.302
174.0,20.185
176.0,20.067
178.0,19.948
180.0,19.829
182.0,19.708
184.0,19.587
186.0,19.465
188.0,19.342
190.0,19.219
192.0,19.094
194.0,18.969
196.0,18.843
198.0,18.717
200.0,18.589
202.0,18.461
204.0,18.332
206.0,18.202
208.0,18.071
210.0,17.939
212.0,17.807
214.0,17.674
216.0,17.540
218.0,17.405
220.0,17.269
222.0,17.132
224.0,16.995
226.0,16.857
228.0,16.718
230.0,16.577
232.0,16.437
234.0,16.295
236.0,16.152
238.0,16.008
240.0,15.864
242.0,15.719
244.0,15.572
246.0,15.425
248.0,15.277
250.0,15.128
252.0,14.978
254.0,14.827
256.0,14.675
258.0,14.522
260.0,14.368
262.0,14.213
264.0,14.057
266.0,13.900
268.0,13.742
270.0,13.583
272.0,13.423
274.0,13.262
276.0,13.099
278.0,12.936
280.0,12.772
282.0,12.606
284.0,12.440
286.0,12.272
288.0,12.103
290.0,11.933
292.0,11.762
294.0,11.589
296.0,11.416
298.0,11.241
300.0,11.065
302.0,10.887
304.0,10.709
306.0,10.529
308.0,10.348
310.0,10.166
312.0,9.983
314.0,9.798
316.0,9.612
318.0,9.424
320.0,9.236
322.0,9.046
324.0,8.855
326.0,8.663
328.0,8.469
330.0,8.274
332.0,8.078
334.0,7.881
336.0,7.683
338.0,7.483
340.0,7.282
342.0,7.080
344.0,6.877
346.0,6.673
348.0,6.468
350.0,6.262
352.0,6.055
354.0,5.847
356.0,5.638
358.0,5.429
360.0,5.218
362.0,5.006
364.0,4.794
366.0,4.581
368.0,4.367
370.0,4.152
372.0,3.936
374.0,3.720
376.0,3.503
378.0,3.285
380.0,3.067
382.0,2.848
384.0,2.628
386.0,2.407
388.0,2.186
390.0,1.964
392.0,1.741
394.0,1.518
396.0,1.294
398.0,1.069
400.0,0.844
402.0,0.618
404.0,0.391
406.0,0.164
408.0,-0.064
410.0,-0.293
412.0,-0.522
414.0,-0.751
416.0,-0.981
418.0,-1.210
420.0,-1.439
422.0,-1.668
424.0,-1.894
426.0,-2.117
428.0,-2.331
430.0,-2.517
432.0,-2.549
434.0,-2.549
436.0,-2.549
438.0,-2.549
440.0,-2.549
442.0,-2.549
444.0,-2.549
446.0,-2.549
448.0,-2.549
450.0,-2.549
452.0,-2.549
454.0,-2.549
456.0,-2.549
458.0,-2.549
460.0,-2.549
462.0,-2.549
464.0,-2.549
466.0,-2.549
468.0,-2.549
470.0,-2.549
472.0,-2.549
474.0,-2.549
476.0,-2.549
478.0,-2.549
480.0,-2.549
482.0,-2.549
484.0,-2.549
486.0,-2.549
488.0,-2.549
490.0,-2.549
492.0,-2.549
494.0,-2.549
496.0,-2.549
498.0,-2.549
500.0,-2.549