File: PMMA/Calibration_Results/NIST_FSRI/NIST_Props/NIST_FSRI_Gasification_q50_R3_Mass.csv
Time,Mass
[g],[g]
0.0,26.689
2.0,26.689
4.0,26.689
6.0,26.689
8.0,26.689
10.0,26.689
12.0,26.689
14.0,26.689
16.0,26.689
18.0,26.689
20.0,26.689
22.0,26.689
24.0,26.689
26.0,26.688
28.0,26.688
30.0,26.687
32.0,26.686
34.0,26.683
36.0,26.679
38.0,26.674
40.0,26.667
42.0,26.656
44.0,26.643
46.0,26.626
48.0,26.606
50.0,26.581
52.0,26.553
54.0,26.521
56.0,26.484
58.0,26.444
60.0,26.401
62.0,26.354
64.0,26.304
66.0,26.250
68.0,26.195
70.0,26.136
72.0,26.075
74.0,26.012
76.0,25.946
78.0,25.879
80.0,25.809
82.0,25.738
84.0,25.665
86.0,25.590
88.0,25.514
90.0,25.436
92.0,25.357
94.0,25.276
96.0,25.194
98.0,25.111
100.0,25.026
102.0,24.941
104.0,24.854
106.0,24.766
108.0,24.676
110.0,24.586
112.0,24.495
114.0,24.403
116.0,24.310
118.0,24.215
120.0,24.120
122.0,24.024
124.0,23.927
126.0,23.829
128.0,23.731
130.0,23.631
132.0,23.531
134.0,23.429
136.0,23.327
138.0,23.224
140.0,23.120
142.0,23.016
144.0,22.910
146.0,22.804
148.0,22.697
150.0,22.589
152.0,22.481
154.0,22.371
156.0,22.261
158.0,22.150
160.0,22.038
162.0,21.926
164.0,21.813
166.0,21.699
168.0,21.584
170.0,21.468
172.0,21.352
174.0,21.235
176.0,21.117
178.0,20.998
180.0,20.879
182.0,20.758
184.0,20.637
186.0,20.516
188.0,20.393
190.0,20.270
192.0,20.145
194.0,20.020
196.0,19.895
198.0,19.768
200.0,19.641
202.0,19.513
204.0,19.384
206.0,19.254
208.0,19.123
210.0,18.992
212.0,18.860
214.0,18.727
216.0,18.593
218.0,18.458
220.0,18.323
222.0,18.187
224.0,18.049
226.0,17.911
228.0,17.773
230.0,17.633
232.0,17.492
234.0,17.351
236.0,17.208
238.0,17.065
240.0,16.921
242.0,16.776
244.0,16.630
246.0,16.483
248.0,16.335
250.0,16.186
252.0,16.036
254.0,15.886
256.0,15.734
258.0,15.581
260.0,15.428
262.0,15.273
264.0,15.118
266.0,14.961
268.0,14.804
270.0,14.645
272.0,14.485
274.0,14.325
276.0,14.163
278.0,14.000
280.0,13.836
282.0,13.671
284.0,13.505
286.0,13.337
288.0,13.169
290.0,12.999
292.0,12.829
294.0,12.657
296.0,12.484
298.0,12.309
300.0,12.134
302.0,11.957
304.0,11.779
306.0,11.600
308.0,11.420
310.0,11.238
312.0,11.055
314.0,10.871
316.0,10.685
318.0,10.498
320.0,10.310
322.0,10.121
324.0,9.931
326.0,9.739
328.0,9.546
330.0,9.352
332.0,9.156
334.0,8.959
336.0,8.762
338.0,8.562
340.0,8.362
342.0,8.161
344.0,7.958
346.0,7.755
348.0,7.550
350.0,7.345
352.0,7.138
354.0,6.931
356.0,6.722
358.0,6.513
360.0,6.303
362.0,6.091
364.0,5.879
366.0,5.667
368.0,5.453
370.0,5.239
372.0,5.023
374.0,4.807
376.0,4.591
378.0,4.373
380.0,4.155
382.0,3.936
384.0,3.717
386.0,3.497
388.0,3.276
390.0,3.054
392.0,2.832
394.0,2.609
396.0,2.385
398.0,2.161
400.0,1.935
402.0,1.710
404.0,1.483
406.0,1.256
408.0,1.029
410.0,0.800
412.0,0.572
414.0,0.342
416.0,0.113
418.0,-0.117
420.0,-0.346
422.0,-0.575
424.0,-0.803
426.0,-1.027
428.0,-1.247
430.0,-1.451
432.0,-1.565
434.0,-1.565
436.0,-1.565
438.0,-1.565
440.0,-1.565
442.0,-1.565
444.0,-1.565
446.0,-1.565
448.0,-1.565
450.0,-1.565
452.0,-1.565
454.0,-1.565
456.0,-1.565
458.0,-1.565
460.0,-1.565
462.0,-1.565
464.0,-1.565
466.0,-1.565
468.0,-1.565
470.0,-1.565
472.0,-1.565
474.0,-1.565
476.0,-1.565
478.0,-1.565
480.0,-1.565
482.0,-1.565
484.0,-1.565
486.0,-1.565
488.0,-1.565
490.0,-1.565
492.0,-1.565
494.0,-1.565
496.0,-1.565
498.0,-1.565
500.0,-1.565