File: PMMA/Calibration_Results/NIST_FSRI/NIST_Props/NIST_FSRI_Gasification_q50_T4_Temp.csv
Time,T_back
[s],[K]
0.0,293.6
2.0,293.6
4.0,293.6
6.0,293.6
8.0,293.6
10.0,293.6
12.0,293.6
14.0,293.6
16.0,293.6
18.0,293.6
20.0,293.6
22.0,293.7
24.0,293.7
26.0,293.8
28.0,293.9
30.0,294.0
32.0,294.2
34.0,294.4
36.0,294.7
38.0,295.1
40.0,295.5
42.0,296.0
44.0,296.6
46.0,297.2
48.0,298.0
50.0,298.8
52.0,299.6
54.0,300.6
56.0,301.6
58.0,302.7
60.0,303.8
62.0,305.0
64.0,306.3
66.0,307.7
68.0,309.1
70.0,310.6
72.0,312.1
74.0,313.7
76.0,315.3
78.0,317.0
80.0,318.7
82.0,320.5
84.0,322.3
86.0,324.2
88.0,326.0
90.0,327.9
92.0,329.9
94.0,331.8
96.0,333.8
98.0,335.9
100.0,337.9
102.0,339.9
104.0,342.0
106.0,344.1
108.0,346.2
110.0,348.3
112.0,350.4
114.0,352.6
116.0,354.7
118.0,356.9
120.0,359.0
122.0,361.2
124.0,363.3
126.0,365.5
128.0,367.7
130.0,369.9
132.0,372.1
134.0,374.2
136.0,376.4
138.0,378.6
140.0,380.8
142.0,383.0
144.0,385.2
146.0,387.3
148.0,389.5
150.0,391.7
152.0,393.9
154.0,396.1
156.0,398.2
158.0,400.4
160.0,402.6
162.0,404.8
164.0,406.9
166.0,409.1
168.0,411.3
170.0,413.4
172.0,415.6
174.0,417.7
176.0,419.9
178.0,422.0
180.0,424.2
182.0,426.3
184.0,428.5
186.0,430.6
188.0,432.7
190.0,434.9
192.0,437.0
194.0,439.1
196.0,441.3
198.0,443.4
200.0,445.5
202.0,447.6
204.0,449.7
206.0,451.9
208.0,454.0
210.0,456.1
212.0,458.2
214.0,460.3
216.0,462.4
218.0,464.5
220.0,466.6
222.0,468.7
224.0,470.8
226.0,472.9
228.0,475.0
230.0,477.0
232.0,479.1
234.0,481.2
236.0,483.3
238.0,485.4
240.0,487.4
242.0,489.5
244.0,491.6
246.0,493.6
248.0,495.7
250.0,497.8
252.0,499.8
254.0,501.9
256.0,504.0
258.0,506.0
260.0,508.1
262.0,510.1
264.0,512.2
266.0,514.2
268.0,516.2
270.0,518.3
272.0,520.3
274.0,522.3
276.0,524.4
278.0,526.4
280.0,528.4
282.0,530.4
284.0,532.4
286.0,534.4
288.0,536.4
290.0,538.4
292.0,540.4
294.0,542.4
296.0,544.4
298.0,546.4
300.0,548.3
302.0,550.3
304.0,552.2
306.0,554.1
308.0,556.1
310.0,558.0
312.0,559.9
314.0,561.8
316.0,563.6
318.0,565.5
320.0,567.4
322.0,569.2
324.0,571.0
326.0,572.8
328.0,574.6
330.0,576.4
332.0,578.1
334.0,579.8
336.0,581.6
338.0,583.2
340.0,584.9
342.0,586.6
344.0,588.2
346.0,589.8
348.0,591.4
350.0,593.0
352.0,594.5
354.0,596.1
356.0,597.6
358.0,599.1
360.0,600.6
362.0,602.1
364.0,603.5
366.0,605.0
368.0,606.4
370.0,607.9
372.0,609.3
374.0,610.7
376.0,612.1
378.0,613.6
380.0,615.0
382.0,616.4
384.0,617.9
386.0,619.4
388.0,620.8
390.0,622.3
392.0,623.9
394.0,625.4
396.0,627.0
398.0,628.6
400.0,630.2
402.0,631.9
404.0,633.7
406.0,635.5
408.0,637.3
410.0,639.2
412.0,641.2
414.0,643.3
416.0,645.4
418.0,647.7
420.0,650.1
422.0,652.5
424.0,655.2
426.0,658.0
428.0,661.0
430.0,664.2
432.0,667.7
434.0,671.5
436.0,675.8
438.0,680.6
440.0,686.1
442.0,692.8
444.0,701.2
446.0,713.0
448.0,733.9
450.0,762.7
452.0,808.2
454.0,826.4
456.0,837.2
458.0,844.6
460.0,850.1
462.0,854.5
464.0,858.0
466.0,860.9
468.0,863.4
470.0,865.6
472.0,867.6
474.0,869.3
476.0,870.8
478.0,872.2
480.0,873.5
482.0,874.7
484.0,875.8
486.0,876.8
488.0,877.7
490.0,878.6
492.0,879.4
494.0,880.1
496.0,880.9
498.0,881.5
500.0,882.2