File: PMMA/Calibration_Results/NIST_FSRI/NIST_Props/NIST_FSRI_Gasification_q50_R5_Mass.csv
Time,Mass
[s],[g]
0.0,28.113
2.0,28.113
4.0,28.113
6.0,28.113
8.0,28.113
10.0,28.113
12.0,28.113
14.0,28.113
16.0,28.113
18.0,28.113
20.0,28.113
22.0,28.113
24.0,28.113
26.0,28.112
28.0,28.112
30.0,28.111
32.0,28.110
34.0,28.107
36.0,28.104
38.0,28.098
40.0,28.091
42.0,28.081
44.0,28.068
46.0,28.051
48.0,28.031
50.0,28.006
52.0,27.978
54.0,27.946
56.0,27.910
58.0,27.870
60.0,27.826
62.0,27.779
64.0,27.729
66.0,27.677
68.0,27.621
70.0,27.562
72.0,27.502
74.0,27.439
76.0,27.373
78.0,27.306
80.0,27.237
82.0,27.165
84.0,27.093
86.0,27.018
88.0,26.942
90.0,26.864
92.0,26.785
94.0,26.705
96.0,26.623
98.0,26.540
100.0,26.456
102.0,26.371
104.0,26.284
106.0,26.197
108.0,26.108
110.0,26.019
112.0,25.928
114.0,25.836
116.0,25.744
118.0,25.651
120.0,25.556
122.0,25.461
124.0,25.365
126.0,25.268
128.0,25.171
130.0,25.072
132.0,24.973
134.0,24.873
136.0,24.773
138.0,24.671
140.0,24.569
142.0,24.466
144.0,24.362
146.0,24.258
148.0,24.153
150.0,24.047
152.0,23.941
154.0,23.834
156.0,23.726
158.0,23.618
160.0,23.508
162.0,23.399
164.0,23.288
166.0,23.177
168.0,23.065
170.0,22.953
172.0,22.840
174.0,22.726
176.0,22.611
178.0,22.496
180.0,22.380
182.0,22.264
184.0,22.147
186.0,22.029
188.0,21.911
190.0,21.792
192.0,21.672
194.0,21.552
196.0,21.431
198.0,21.309
200.0,21.186
202.0,21.063
204.0,20.940
206.0,20.815
208.0,20.690
210.0,20.564
212.0,20.438
214.0,20.311
216.0,20.183
218.0,20.055
220.0,19.926
222.0,19.796
224.0,19.665
226.0,19.534
228.0,19.402
230.0,19.269
232.0,19.136
234.0,19.002
236.0,18.867
238.0,18.731
240.0,18.595
242.0,18.458
244.0,18.320
246.0,18.181
248.0,18.042
250.0,17.902
252.0,17.761
254.0,17.619
256.0,17.477
258.0,17.334
260.0,17.190
262.0,17.045
264.0,16.899
266.0,16.753
268.0,16.605
270.0,16.457
272.0,16.308
274.0,16.159
276.0,16.008
278.0,15.857
280.0,15.704
282.0,15.551
284.0,15.397
286.0,15.242
288.0,15.086
290.0,14.929
292.0,14.772
294.0,14.613
296.0,14.453
298.0,14.293
300.0,14.131
302.0,13.968
304.0,13.805
306.0,13.640
308.0,13.475
310.0,13.308
312.0,13.141
314.0,12.972
316.0,12.802
318.0,12.631
320.0,12.459
322.0,12.286
324.0,12.112
326.0,11.937
328.0,11.760
330.0,11.583
332.0,11.404
334.0,11.224
336.0,11.043
338.0,10.861
340.0,10.677
342.0,10.492
344.0,10.306
346.0,10.119
348.0,9.931
350.0,9.742
352.0,9.551
354.0,9.359
356.0,9.166
358.0,8.971
360.0,8.776
362.0,8.579
364.0,8.381
366.0,8.182
368.0,7.982
370.0,7.781
372.0,7.579
374.0,7.375
376.0,7.171
378.0,6.965
380.0,6.759
382.0,6.552
384.0,6.343
386.0,6.134
388.0,5.924
390.0,5.713
392.0,5.501
394.0,5.288
396.0,5.075
398.0,4.861
400.0,4.646
402.0,4.430
404.0,4.214
406.0,3.996
408.0,3.778
410.0,3.560
412.0,3.340
414.0,3.120
416.0,2.900
418.0,2.678
420.0,2.456
422.0,2.233
424.0,2.010
426.0,1.786
428.0,1.561
430.0,1.335
432.0,1.109
434.0,0.882
436.0,0.655
438.0,0.427
440.0,0.198
442.0,-0.031
444.0,-0.261
446.0,-0.491
448.0,-0.721
450.0,-0.951
452.0,-1.180
454.0,-1.408
456.0,-1.634
458.0,-1.853
460.0,-2.059
462.0,-2.176
464.0,-2.176
466.0,-2.176
468.0,-2.176
470.0,-2.176
472.0,-2.176
474.0,-2.176
476.0,-2.176
478.0,-2.176
480.0,-2.176
482.0,-2.176
484.0,-2.176
486.0,-2.176
488.0,-2.176
490.0,-2.176
492.0,-2.176
494.0,-2.176
496.0,-2.176
498.0,-2.176
500.0,-2.176