File: PMMA/Calibration_Results/NIST_FSRI/NIST_Props/NIST_FSRI_Gasification_q50_T3_Temp.csv
Time,T_back
[s],[K]
0.0,292.4
2.0,292.4
4.0,292.4
6.0,292.4
8.0,292.4
10.0,292.4
12.0,292.4
14.0,292.4
16.0,292.4
18.0,292.4
20.0,292.4
22.0,292.4
24.0,292.4
26.0,292.5
28.0,292.6
30.0,292.7
32.0,292.9
34.0,293.1
36.0,293.3
38.0,293.6
40.0,294.0
42.0,294.5
44.0,295.0
46.0,295.6
48.0,296.2
50.0,296.9
52.0,297.7
54.0,298.6
56.0,299.5
58.0,300.5
60.0,301.6
62.0,302.7
64.0,303.9
66.0,305.2
68.0,306.5
70.0,307.9
72.0,309.3
74.0,310.8
76.0,312.4
78.0,313.9
80.0,315.6
82.0,317.3
84.0,319.0
86.0,320.7
88.0,322.5
90.0,324.3
92.0,326.2
94.0,328.1
96.0,330.0
98.0,331.9
100.0,333.9
102.0,335.8
104.0,337.8
106.0,339.8
108.0,341.9
110.0,343.9
112.0,346.0
114.0,348.0
116.0,350.1
118.0,352.2
120.0,354.3
122.0,356.4
124.0,358.5
126.0,360.6
128.0,362.7
130.0,364.8
132.0,367.0
134.0,369.1
136.0,371.2
138.0,373.3
140.0,375.5
142.0,377.6
144.0,379.7
146.0,381.9
148.0,384.0
150.0,386.1
152.0,388.3
154.0,390.4
156.0,392.5
158.0,394.7
160.0,396.8
162.0,398.9
164.0,401.0
166.0,403.2
168.0,405.3
170.0,407.4
172.0,409.5
174.0,411.6
176.0,413.8
178.0,415.9
180.0,418.0
182.0,420.1
184.0,422.2
186.0,424.3
188.0,426.4
190.0,428.5
192.0,430.6
194.0,432.7
196.0,434.8
198.0,436.9
200.0,438.9
202.0,441.0
204.0,443.1
206.0,445.2
208.0,447.3
210.0,449.4
212.0,451.4
214.0,453.5
216.0,455.6
218.0,457.6
220.0,459.7
222.0,461.8
224.0,463.8
226.0,465.9
228.0,468.0
230.0,470.0
232.0,472.1
234.0,474.1
236.0,476.2
238.0,478.2
240.0,480.3
242.0,482.3
244.0,484.4
246.0,486.4
248.0,488.5
250.0,490.5
252.0,492.5
254.0,494.6
256.0,496.6
258.0,498.7
260.0,500.7
262.0,502.7
264.0,504.7
266.0,506.8
268.0,508.8
270.0,510.8
272.0,512.8
274.0,514.9
276.0,516.9
278.0,518.9
280.0,520.9
282.0,522.9
284.0,524.9
286.0,526.9
288.0,528.9
290.0,530.9
292.0,532.9
294.0,534.9
296.0,536.8
298.0,538.8
300.0,540.8
302.0,542.7
304.0,544.7
306.0,546.6
308.0,548.6
310.0,550.5
312.0,552.4
314.0,554.3
316.0,556.2
318.0,558.1
320.0,560.0
322.0,561.9
324.0,563.8
326.0,565.6
328.0,567.4
330.0,569.2
332.0,571.0
334.0,572.8
336.0,574.6
338.0,576.4
340.0,578.1
342.0,579.8
344.0,581.5
346.0,583.2
348.0,584.9
350.0,586.5
352.0,588.1
354.0,589.7
356.0,591.3
358.0,592.9
360.0,594.4
362.0,596.0
364.0,597.5
366.0,599.0
368.0,600.5
370.0,601.9
372.0,603.4
374.0,604.8
376.0,606.3
378.0,607.7
380.0,609.1
382.0,610.5
384.0,612.0
386.0,613.4
388.0,614.8
390.0,616.2
392.0,617.7
394.0,619.1
396.0,620.6
398.0,622.1
400.0,623.6
402.0,625.2
404.0,626.7
406.0,628.3
408.0,630.0
410.0,631.7
412.0,633.4
414.0,635.2
416.0,637.0
418.0,638.9
420.0,640.9
422.0,642.9
424.0,645.1
426.0,647.3
428.0,649.6
430.0,652.1
432.0,654.7
434.0,657.5
436.0,660.4
438.0,663.6
440.0,667.0
442.0,670.8
444.0,674.9
446.0,679.7
448.0,685.1
450.0,691.5
452.0,699.5
454.0,710.4
456.0,728.5
458.0,766.1
460.0,803.0
462.0,823.7
464.0,835.4
466.0,843.3
468.0,849.1
470.0,853.6
472.0,857.3
474.0,860.3
476.0,862.9
478.0,865.1
480.0,867.1
482.0,868.8
484.0,870.4
486.0,871.8
488.0,873.1
490.0,874.3
492.0,875.4
494.0,876.5
496.0,877.4
498.0,878.3
500.0,879.1