File: PMMA/Validation_Results/UMET/Model_MaCFP-PMMA_Gasification_q50_Mass_R3.csv
Time,Mass
[s],[g]
0,26.689
4,26.689
8,26.689
12,26.689
16,26.688
20,26.684
24,26.676
28,26.660
32,26.629
36,26.564
40,26.491
44,26.395
48,26.273
52,26.134
56,25.967
60,25.790
64,25.587
68,25.382
72,25.162
76,24.933
80,24.693
84,24.444
88,24.188
92,23.926
96,23.656
100,23.378
104,23.097
108,22.811
112,22.519
116,22.221
120,21.920
124,21.616
128,21.308
132,20.996
136,20.680
140,20.362
144,20.041
148,19.716
152,19.389
156,19.059
160,18.727
164,18.392
168,18.054
172,17.715
176,17.374
180,17.030
184,16.685
188,16.337
192,15.987
196,15.634
200,15.280
204,14.924
208,14.567
212,14.207
216,13.846
220,13.483
224,13.118
228,12.751
232,12.382
236,12.011
240,11.640
244,11.267
248,10.893
252,10.517
256,10.139
260,9.760
264,9.379
268,8.997
272,8.614
276,8.230
280,7.845
284,7.459
288,7.071
292,6.683
296,6.293
300,5.902
304,5.509
308,5.115
312,4.720
316,4.324
320,3.927
324,3.529
328,3.130
332,2.730
336,2.329
340,1.926
344,1.523
348,1.118
352,0.712
356,0.305
360,-0.103
364,-0.512
368,-0.922
372,-1.333
376,-1.746
380,-2.145
384,-2.256
388,-2.274
392,-2.280
396,-2.284
400,-2.286
404,-2.287
408,-2.288
412,-2.289
416,-2.289
420,-2.290
424,-2.290
428,-2.290
432,-2.291
436,-2.291
440,-2.291
444,-2.291
448,-2.291
452,-2.292
456,-2.292
460,-2.292
464,-2.292
468,-2.292
472,-2.292
476,-2.292
480,-2.292
3,25.643
7,25.643
11,25.643
15,25.642
19,25.640
23,25.633
27,25.620
31,25.593
35,25.552
39,25.496
43,25.416
47,25.321
51,25.192
55,25.058
59,24.897
63,24.719
67,24.521
71,24.304
75,24.077
79,23.837
83,23.583
87,23.317
91,23.048
95,22.770
99,22.484
103,22.191
107,21.896
111,21.596
115,21.290
119,20.982
123,20.670
127,20.355
131,20.036
135,19.714
139,19.390
143,19.062
147,18.732
151,18.400
155,18.065
159,17.728
163,17.388
167,17.047
171,16.703
175,16.357
179,16.008
183,15.657
187,15.305
191,14.950
195,14.593
199,14.235
203,13.874
207,13.512
211,13.147
215,12.780
219,12.412
223,12.042
227,11.671
231,11.298
235,10.923
239,10.546
243,10.167
247,9.787
251,9.407
255,9.025
259,8.641
263,8.257
267,7.871
271,7.483
275,7.094
279,6.704
283,6.312
287,5.919
291,5.525
295,5.129
299,4.733
303,4.336
307,3.937
311,3.537
315,3.136
319,2.734
323,2.330
327,1.925
331,1.519
335,1.112
339,0.703
343,0.294
347,-0.117
351,-0.528
355,-0.941
359,-1.355
363,-1.770
367,-2.185
371,-2.602
375,-3.019
379,-3.409
383,-3.514
387,-3.534
391,-3.541
395,-3.545
399,-3.547
403,-3.548
407,-3.549
411,-3.550
415,-3.550
419,-3.551
423,-3.551
427,-3.551
431,-3.551
435,-3.552
439,-3.552
443,-3.552
447,-3.552
451,-3.552
455,-3.553
459,-3.553
463,-3.553
467,-3.553
471,-3.553
475,-3.553
479,-3.553
480,-3.553