File: PMMA/Validation_Results/UMET/Model_MaCFP-PMMA_Gasification_q50_MLR_R4.csv
Time,MLR
[s],[g/m2/s]
0,0
2,7.59E-09
4,3.88E-06
6,6.66E-05
8,6.03E-04
10,0.003114187
12,0.0116564
14,0.0705559
16,0.0705559
18,0.244957
20,0.244957
22,0.585859
24,0.585859
26,1.11081
28,1.11081
30,2.66808
32,2.66808
34,2.66808
36,2.66808
38,5.20306
40,5.20306
42,5.20306
44,5.20306
46,8.3992
48,8.3992
50,8.3992
52,8.3992
54,8.3992
56,10.15
58,10.7215
60,11.2929
62,11.8644
64,12.6083
66,13.2386
68,13.869
70,14.4993
72,14.5711
74,15.0016
76,15.4321
78,15.8626
80,16.2931
82,16.7236
84,17.1541
86,17.5845
88,17.367
90,17.6564
92,17.9458
94,18.2352
96,18.5246
98,18.814
100,19.1033
102,18.9472
104,19.1205
106,19.2938
108,19.4671
110,19.6404
112,19.8137
114,19.987
116,20.1603
118,20.1134
120,20.2388
122,20.3642
124,20.4896
126,20.615
128,20.7404
130,20.8658
132,20.881
134,20.981
136,21.0811
138,21.1812
140,21.2813
142,21.3814
144,21.4815
146,21.5207
148,21.606
150,21.6913
152,21.7766
154,21.8619
156,21.9471
158,22.0324
160,22.0724
162,22.146
164,22.2196
166,22.2932
168,22.3668
170,22.4404
172,22.514
174,22.5876
176,22.6612
178,22.7348
180,22.8084
182,22.882
184,22.9556
186,23.0292
188,23.1029
190,23.1232
192,23.1902
194,23.2571
196,23.3241
198,23.391
200,23.458
202,23.525
204,23.5919
206,23.6589
208,23.7258
210,23.7928
212,23.8598
214,23.9267
216,23.9937
218,23.9937
220,24.0518
222,24.1098
224,24.1679
226,24.226
228,24.2841
230,24.3421
232,24.4002
234,24.4583
236,24.5164
238,24.5744
240,24.6325
242,24.6906
244,24.7487
246,24.8067
248,24.7645
250,24.8101
252,24.8558
254,24.9014
256,24.947
258,24.9927
260,25.0383
262,25.0839
264,25.1295
266,25.1752
268,25.2208
270,25.2664
272,25.312
274,25.3577
276,25.4033
278,25.4489
280,25.4946
282,25.5402
284,25.5858
286,25.6314
288,25.6771
290,25.7227
292,25.7683
294,25.814
296,25.7892
298,25.8293
300,25.8695
302,25.9096
304,25.9497
306,25.9899
308,26.03
310,26.0701
312,26.1103
314,26.1504
316,26.1905
318,26.2307
320,26.2708
322,26.3109
324,26.3511
326,26.3912
328,26.4314
330,26.4715
332,26.5116
334,26.5518
336,26.5919
338,26.632
340,26.6722
342,26.7123
344,26.7192
346,26.7568
348,26.7943
350,26.8319
352,26.8694
354,26.9069
356,26.9445
358,26.982
360,27.0196
362,27.0571
364,27.0604
366,27.0918
368,27.1214
370,27.1514
372,27.1814
374,27.2113
376,27.2413
378,27.2686
380,11.0337
382,3.854
384,2.01482
386,0.750693
388,0.372605
390,0.372605
392,0.216157
394,0.216157
396,0.14009
398,0.14009
400,0.0738752
402,0.0738752
404,0.0738752
406,0.0456291
408,0.0456291
410,0.0456291
412,0.0456291
414,0.0311398
416,0.0311398
418,0.0311398
420,0.0311398
422,0.017507
424,0.017507
426,0.017507
428,0.017507
430,0.017507
432,0.017507
434,0.017507
436,0.0112315
438,0.0112315
440,0.0112315
442,0.0112315
444,0.0112315
446,0.0112315
448,0.0112315
450,0.00773937
452,0.00773937
454,0.00773937
456,0.00773937
458,0.00773937
460,0.00773937
462,0.00773937
464,0.004033319
466,0.004033319
468,0.004033319
470,0.004033319
472,0.004033319
474,0.004033319
476,0.004033319
478,0.004033319
480,0.004033319