File: PMMA/Validation_Results/UMET/UMET_Gasification_q50_Temp_R4.csv
Time,T_back
[s],[K]
0,290.00
2,291.49
4,292.56
6,293.44
8,293.88
10,294.15
12,294.40
14,294.68
16,295.38
18,296.09
20,297.06
22,298.19
24,299.42
26,300.96
28,302.51
30,304.25
32,306.02
34,307.92
36,309.91
38,311.91
40,313.91
42,315.90
44,317.89
46,319.88
48,321.86
50,323.85
52,325.82
54,327.72
56,329.62
58,331.52
60,333.42
62,335.30
64,337.15
66,338.98
68,340.80
70,342.61
72,344.35
74,346.05
76,347.71
78,349.33
80,350.92
82,352.47
84,353.99
86,355.48
88,356.93
90,358.34
92,359.72
94,361.07
96,362.38
98,363.65
100,364.90
102,366.12
104,367.31
106,368.46
108,369.58
110,370.67
112,371.73
114,372.76
116,373.77
118,374.85
120,375.91
122,376.97
124,378.01
126,379.05
128,380.08
130,381.10
132,382.11
134,383.14
136,384.17
138,385.21
140,386.25
142,387.29
144,388.32
146,389.36
148,390.39
150,391.42
152,392.44
154,393.46
156,394.48
158,395.49
160,396.50
162,397.51
164,398.52
166,399.52
168,400.50
170,401.47
172,402.44
174,403.40
176,404.35
178,405.29
180,406.23
182,407.16
184,408.08
186,409.00
188,409.91
190,410.81
192,411.70
194,412.59
196,413.47
198,414.35
200,415.21
202,416.07
204,416.93
206,417.78
208,418.62
210,419.45
212,420.28
214,421.10
216,421.92
218,422.72
220,423.52
222,424.32
224,425.11
226,425.89
228,426.66
230,427.43
232,428.19
234,428.94
236,429.70
238,430.45
240,431.20
242,431.94
244,432.67
246,433.41
248,434.13
250,434.85
252,435.56
254,436.27
256,436.98
258,437.67
260,438.37
262,439.05
264,439.73
266,440.41
268,441.08
270,441.75
272,442.40
274,443.06
276,443.71
278,444.35
280,444.99
282,445.62
284,446.26
286,446.89
288,447.53
290,448.15
292,448.77
294,449.39
296,450.00
298,450.61
300,451.22
302,451.82
304,452.41
306,453.00
308,453.59
310,454.17
312,454.75
314,455.32
316,455.89
318,456.46
320,457.02
322,457.57
324,458.12
326,458.67
328,459.21
330,459.75
332,460.30
334,460.84
336,461.38
338,461.92
340,462.45
342,462.98
344,463.50
346,464.02
348,464.54
350,465.06
352,465.57
354,466.08
356,466.58
358,467.08
360,467.58
362,468.08
364,468.57
366,469.05
368,469.54
370,470.02
372,470.50
374,470.97
376,471.44
378,471.91
380,472.14
382,470.72
384,470.70
386,470.79
388,470.86
390,470.93
392,471.07
394,471.31
396,471.66
398,472.02
400,472.47
402,473.01
404,473.55
406,474.15
408,474.79
410,475.44
412,476.09
414,476.74
416,477.39
418,478.04
420,478.69
422,479.34
424,479.91
426,480.46
428,481.01
430,481.56
432,482.12
434,482.67
436,483.08
438,483.50
440,483.92
442,484.33
444,484.75
446,485.12
448,485.29
450,485.46
452,485.62
454,485.79
456,485.96
458,486.12
460,486.29
462,486.45
464,486.62
466,486.79
468,486.95
470,487.03
472,487.01
474,486.98
476,486.96
478,486.94
480,486.91