File: PMMA/Validation_Results/UMET/UMET_Gasification_q50_Mass_R4.csv
Time,Mass
[s],[g]
0,25.643
2,25.643
4,25.643
6,25.643
8,25.643
10,25.643
12,25.643
14,25.643
16,25.642
18,25.641
20,25.639
22,25.635
24,25.631
26,25.625
28,25.616
30,25.603
32,25.582
34,25.562
36,25.541
38,25.516
40,25.476
42,25.436
44,25.396
46,25.353
48,25.288
50,25.224
52,25.159
54,25.095
56,25.019
58,24.939
60,24.855
62,24.766
64,24.672
66,24.572
68,24.468
70,24.359
72,24.248
74,24.135
76,24.018
78,23.898
80,23.775
82,23.648
84,23.518
86,23.385
88,23.250
90,23.116
92,22.979
94,22.840
96,22.699
98,22.556
100,22.411
102,22.264
104,22.117
106,21.970
108,21.821
110,21.671
112,21.520
114,21.367
116,21.213
118,21.059
120,20.904
122,20.748
124,20.592
126,20.434
128,20.275
130,20.116
132,19.956
134,19.795
136,19.633
138,19.471
140,19.308
142,19.145
144,18.980
146,18.815
148,18.650
150,18.483
152,18.317
154,18.149
156,17.981
158,17.812
160,17.643
162,17.473
164,17.303
166,17.132
168,16.961
170,16.789
172,16.616
174,16.443
176,16.270
178,16.095
180,15.921
182,15.745
184,15.569
186,15.393
188,15.216
190,15.039
192,14.861
194,14.683
196,14.504
198,14.325
200,14.145
202,13.965
204,13.784
206,13.603
208,13.421
210,13.238
212,13.055
214,12.872
216,12.688
218,12.504
220,12.320
222,12.135
224,11.949
226,11.764
228,11.578
230,11.391
232,11.204
234,11.016
236,10.829
238,10.640
240,10.451
242,10.262
244,10.072
246,9.882
248,9.692
250,9.502
252,9.311
254,9.120
256,8.929
258,8.737
260,8.545
262,8.353
264,8.160
266,7.967
268,7.774
270,7.580
272,7.386
274,7.192
276,6.997
278,6.802
280,6.606
282,6.410
284,6.214
286,6.018
288,5.821
290,5.624
292,5.426
294,5.228
296,5.030
298,4.832
300,4.634
302,4.435
304,4.236
306,4.037
308,3.837
310,3.637
312,3.437
314,3.236
316,3.035
318,2.834
320,2.633
322,2.431
324,2.229
326,2.027
328,1.824
330,1.621
332,1.418
334,1.214
336,1.010
338,0.806
340,0.601
342,0.396
344,0.191
346,-0.014
348,-0.219
350,-0.425
352,-0.631
354,-0.838
356,-1.044
358,-1.251
360,-1.458
362,-1.666
364,-1.874
366,-2.081
368,-2.290
370,-2.498
372,-2.706
374,-2.915
376,-3.124
378,-3.333
380,-3.462
382,-3.504
384,-3.522
386,-3.531
388,-3.537
390,-3.540
392,-3.542
394,-3.544
396,-3.545
398,-3.546
400,-3.547
402,-3.548
404,-3.548
406,-3.549
408,-3.549
410,-3.549
412,-3.550
414,-3.550
416,-3.550
418,-3.551
420,-3.551
422,-3.551
424,-3.551
426,-3.551
428,-3.551
430,-3.551
432,-3.552
434,-3.552
436,-3.552
438,-3.552
440,-3.552
442,-3.552
444,-3.552
446,-3.552
448,-3.552
450,-3.552
452,-3.552
454,-3.553
456,-3.553
458,-3.553
460,-3.553
462,-3.553
464,-3.553
466,-3.553
468,-3.553
470,-3.553
472,-3.553
474,-3.553
476,-3.553
478,-3.553
480,-3.553