File: PMMA/Validation_Results/UMET/UMET_Gasification_q50_Temp_R5.csv
Time,T_back
[s],[K]
0,290.00
2,291.74
4,292.95
6,293.88
8,294.35
10,294.64
12,294.86
14,295.07
16,295.56
18,296.22
20,296.94
22,298.00
24,299.06
26,300.40
28,301.87
30,303.38
32,305.07
34,306.75
36,308.58
38,310.46
40,312.33
42,314.21
44,316.08
46,317.95
48,319.83
50,321.70
52,323.57
54,325.41
56,327.23
58,329.04
60,330.86
62,332.68
64,334.38
66,336.08
68,337.79
70,339.49
72,341.12
74,342.69
76,344.27
78,345.84
80,347.41
82,348.91
84,350.38
86,351.84
88,353.26
90,354.66
92,356.03
94,357.37
96,358.69
98,359.98
100,361.23
102,362.46
104,363.66
106,364.82
108,365.96
110,367.07
112,368.15
114,369.20
116,370.24
118,371.29
120,372.31
122,373.32
124,374.31
126,375.28
128,376.24
130,377.17
132,378.08
134,379.02
136,379.98
138,380.94
140,381.90
142,382.85
144,383.80
146,384.75
148,385.69
150,386.63
152,387.58
154,388.54
156,389.49
158,390.45
160,391.41
162,392.37
164,393.33
166,394.28
168,395.24
170,396.19
172,397.12
174,398.05
176,398.98
178,399.90
180,400.82
182,401.74
184,402.65
186,403.56
188,404.45
190,405.33
192,406.21
194,407.08
196,407.94
198,408.79
200,409.64
202,410.48
204,411.32
206,412.14
208,412.96
210,413.78
212,414.58
214,415.38
216,416.18
218,416.96
220,417.74
222,418.52
224,419.29
226,420.06
228,420.82
230,421.58
232,422.33
234,423.08
236,423.82
238,424.55
240,425.28
242,426.00
244,426.71
246,427.42
248,428.13
250,428.83
252,429.52
254,430.20
256,430.88
258,431.56
260,432.25
262,432.92
264,433.59
266,434.26
268,434.92
270,435.58
272,436.23
274,436.88
276,437.53
278,438.17
280,438.80
282,439.43
284,440.06
286,440.68
288,441.29
290,441.90
292,442.51
294,443.11
296,443.71
298,444.30
300,444.89
302,445.48
304,446.06
306,446.64
308,447.22
310,447.79
312,448.37
314,448.94
316,449.50
318,450.07
320,450.62
322,451.18
324,451.73
326,452.28
328,452.82
330,453.36
332,453.90
334,454.43
336,454.96
338,455.48
340,456.00
342,456.52
344,457.03
346,457.54
348,458.05
350,458.55
352,459.05
354,459.55
356,460.05
358,460.55
360,461.04
362,461.54
364,462.02
366,462.51
368,462.99
370,463.47
372,463.95
374,464.43
376,464.90
378,465.36
380,465.83
382,466.29
384,466.75
386,467.21
388,467.66
390,468.11
392,468.56
394,469.00
396,469.45
398,469.88
400,470.32
402,470.75
404,471.18
406,471.61
408,471.68
410,471.46
412,470.99
414,470.37
416,470.25
418,470.16
420,470.21
422,470.30
424,470.48
426,470.71
428,471.04
430,471.45
432,471.98
434,472.51
436,473.04
438,473.63
440,474.26
442,474.89
444,475.52
446,476.16
448,476.81
450,477.45
452,478.10
454,478.63
456,479.15
458,479.67
460,480.19
462,480.71
464,481.23
466,481.75
468,482.23
470,482.58
472,482.94
474,483.29
476,483.64
478,483.99
480,484.34