File: PMMA/Validation_Results/UMET/UMET_Gasification_q50_MLR_R3.csv
Time,MLR
[s],[g/m2/s]
0,0
2,5.17E-09
4,2.66E-06
6,5.60E-05
8,7.71E-04
10,0.006861928
12,0.0235204
14,0.0235204
16,0.130488
18,0.130488
20,0.441042
22,0.441042
24,1.04814
26,1.04814
28,1.04814
30,2.00475
32,2.00475
34,4.75283
36,4.75283
38,4.75283
40,4.75283
42,4.75283
44,7.94169
46,7.94169
48,7.94169
50,7.94169
52,10.8982
54,10.8982
56,10.8982
58,10.8982
60,13.2443
62,13.2443
64,13.2443
66,13.2443
68,13.9979
70,14.3078
72,14.6178
74,14.9278
76,15.2754
78,15.6023
80,15.9292
82,16.2561
84,16.583
86,16.6406
88,16.8781
90,17.1156
92,17.3532
94,17.5907
96,17.8282
98,18.0657
100,18.3032
102,18.2819
104,18.4644
106,18.6468
108,18.8293
110,19.0117
112,19.1941
114,19.3766
116,19.559
118,19.5364
120,19.671
122,19.8055
124,19.9401
126,20.0746
128,20.2092
130,20.3437
132,20.4783
134,20.6128
136,20.6071
138,20.7128
140,20.8185
142,20.9242
144,21.0299
146,21.1356
148,21.2413
150,21.347
152,21.3793
154,21.4684
156,21.5576
158,21.6467
160,21.7359
162,21.8251
164,21.9142
166,22.0034
168,22.0926
170,22.0919
172,22.1632
174,22.2345
176,22.3057
178,22.377
180,22.4483
182,22.5196
184,22.5909
186,22.6622
188,22.7335
190,22.8048
192,22.876
194,22.9473
196,23.0186
198,23.0899
200,23.1612
202,23.2325
204,23.2202
206,23.2826
208,23.345
210,23.4074
212,23.4698
214,23.5322
216,23.5946
218,23.657
220,23.7194
222,23.7818
224,23.8442
226,23.9065
228,23.9689
230,24.0313
232,24.0937
234,24.1561
236,24.1313
238,24.1835
240,24.2357
242,24.2879
244,24.3401
246,24.3923
248,24.4445
250,24.4967
252,24.5489
254,24.6011
256,24.6533
258,24.7055
260,24.7577
262,24.8099
264,24.8621
266,24.9143
268,24.9665
270,24.9178
272,24.9584
274,24.9991
276,25.0397
278,25.0804
280,25.121
282,25.1616
284,25.2023
286,25.2429
288,25.2835
290,25.3242
292,25.3648
294,25.4055
296,25.4461
298,25.4867
300,25.5274
302,25.568
304,25.6086
306,25.6493
308,25.6899
310,25.7306
312,25.7712
314,25.8118
316,25.8525
318,25.8478
320,25.8847
322,25.9217
324,25.9586
326,25.9956
328,26.0325
330,26.0695
332,26.1065
334,26.1434
336,26.1804
338,26.2173
340,26.2543
342,26.2912
344,26.3282
346,26.3651
348,26.4021
350,26.439
352,26.476
354,26.5129
356,26.5499
358,26.5869
360,26.6238
362,26.6608
364,26.6977
366,26.7199
368,26.7557
370,26.7915
372,26.8203
374,26.8526
376,26.8849
378,26.9148
380,18.4146
382,3.25692
384,1.66429
386,0.991057
388,0.652384
390,0.347593
392,0.347593
394,0.213076
396,0.143001
398,0.143001
400,0.0775054
402,0.0775054
404,0.0775054
406,0.0775054
408,0.0480369
410,0.0480369
412,0.0480369
414,0.0325949
416,0.0325949
418,0.0325949
420,0.0325949
422,0.0181113
424,0.0181113
426,0.0181113
428,0.0181113
430,0.0181113
432,0.0181113
434,0.0181113
436,0.0116033
438,0.0116033
440,0.0116033
442,0.0116033
444,0.0116033
446,0.0116033
448,0.0116033
450,0.008096265
452,0.008096265
454,0.008096265
456,0.008096265
458,0.008096265
460,0.008096265
462,0.008096265
464,0.004450168
466,0.004450168
468,0.004450168
470,0.004450168
472,0.004450168
474,0.004450168
476,0.004450168
478,0.004450168
480,0.004450168