File: PMMA/Validation_Results/UMET/UMET_Gasification_q50_Temp_R3.csv
Time,T_back
[s],[K]
0,290.00
2,291.58
4,292.70
6,293.60
8,294.06
10,294.33
12,294.58
14,294.84
16,295.51
18,296.19
20,297.12
22,298.22
24,299.43
26,300.94
28,302.46
30,304.18
32,305.92
34,307.79
36,309.76
38,311.73
40,313.70
42,315.67
44,317.64
46,319.61
48,321.59
50,323.56
52,325.52
54,327.40
56,329.28
58,331.17
60,333.05
62,334.92
64,336.75
66,338.56
68,340.36
70,342.15
72,343.88
74,345.57
76,347.24
78,348.87
80,350.46
82,352.02
84,353.54
86,355.02
88,356.47
90,357.88
92,359.26
94,360.60
96,361.91
98,363.18
100,364.43
102,365.65
104,366.85
106,368.01
108,369.14
110,370.24
112,371.31
114,372.35
116,373.36
118,374.36
120,375.43
122,376.49
124,377.54
126,378.58
128,379.61
130,380.63
132,381.64
134,382.65
136,383.64
138,384.67
140,385.69
142,386.72
144,387.75
146,388.77
148,389.80
150,390.82
152,391.84
154,392.86
156,393.87
158,394.87
160,395.87
162,396.87
164,397.86
166,398.85
168,399.84
170,400.83
172,401.79
174,402.74
176,403.69
178,404.63
180,405.57
182,406.49
184,407.41
186,408.33
188,409.23
190,410.13
192,411.02
194,411.90
196,412.78
198,413.65
200,414.51
202,415.37
204,416.21
206,417.06
208,417.89
210,418.72
212,419.55
214,420.36
216,421.17
218,421.98
220,422.77
222,423.56
224,424.35
226,425.12
228,425.89
230,426.65
232,427.41
234,428.16
236,428.90
238,429.64
240,430.38
242,431.12
244,431.85
246,432.57
248,433.29
250,434.01
252,434.72
254,435.42
256,436.12
258,436.82
260,437.51
262,438.19
264,438.87
266,439.54
268,440.21
270,440.87
272,441.53
274,442.18
276,442.83
278,443.47
280,444.10
282,444.73
284,445.36
286,445.98
288,446.61
290,447.23
292,447.85
294,448.46
296,449.07
298,449.68
300,450.28
302,450.88
304,451.47
306,452.06
308,452.65
310,453.23
312,453.81
314,454.38
316,454.95
318,455.51
320,456.07
322,456.63
324,457.18
326,457.72
328,458.27
330,458.80
332,459.34
334,459.87
336,460.40
338,460.93
340,461.45
342,461.97
344,462.48
346,463.00
348,463.50
350,464.01
352,464.51
354,465.00
356,465.50
358,465.99
360,466.49
362,466.97
364,467.46
366,467.94
368,468.42
370,468.90
372,469.37
374,469.84
376,470.31
378,470.78
380,470.32
382,469.36
384,469.24
386,469.35
388,469.39
390,469.37
392,469.37
394,469.44
396,469.62
398,469.89
400,470.26
402,470.73
404,471.30
406,471.93
408,472.65
410,473.40
412,474.14
414,474.90
416,475.69
418,476.50
420,477.32
422,478.08
424,478.84
426,479.59
428,480.34
430,481.08
432,481.77
434,482.41
436,483.01
438,483.59
440,484.13
442,484.64
444,485.12
446,485.58
448,486.00
450,486.39
452,486.75
454,487.09
456,487.41
458,487.69
460,487.95
462,488.19
464,488.39
466,488.57
468,488.71
470,488.83
472,488.92
474,488.99
476,489.05
478,489.09
480,489.12