File: PMMA/Validation_Results/UMET/UMET_Gasification_q50_Mass_R5.csv
Time,Mass
[s],[g]
0,28.11
2,28.11
4,28.11
6,28.11
8,28.11
10,28.11
12,28.11
14,28.11
16,28.11
18,28.11
20,28.11
22,28.11
24,28.10
26,28.09
28,28.09
30,28.07
32,28.06
34,28.03
36,27.99
38,27.96
40,27.92
42,27.88
44,27.83
46,27.77
48,27.70
50,27.64
52,27.57
54,27.49
56,27.40
58,27.32
60,27.23
62,27.13
64,27.03
66,26.92
68,26.82
70,26.71
72,26.60
74,26.49
76,26.38
78,26.26
80,26.14
82,26.02
84,25.89
86,25.77
88,25.64
90,25.51
92,25.38
94,25.25
96,25.11
98,24.98
100,24.84
102,24.70
104,24.56
106,24.42
108,24.28
110,24.13
112,23.99
114,23.84
116,23.70
118,23.55
120,23.40
122,23.25
124,23.10
126,22.95
128,22.79
130,22.64
132,22.49
134,22.33
136,22.17
138,22.02
140,21.86
142,21.70
144,21.54
146,21.38
148,21.22
150,21.06
152,20.90
154,20.74
156,20.57
158,20.41
160,20.24
162,20.08
164,19.91
166,19.75
168,19.58
170,19.41
172,19.24
174,19.08
176,18.91
178,18.74
180,18.57
182,18.40
184,18.23
186,18.05
188,17.88
190,17.71
192,17.54
194,17.36
196,17.19
198,17.01
200,16.84
202,16.66
204,16.49
206,16.31
208,16.14
210,15.96
212,15.78
214,15.60
216,15.43
218,15.25
220,15.07
222,14.89
224,14.71
226,14.53
228,14.35
230,14.17
232,13.99
234,13.81
236,13.62
238,13.44
240,13.26
242,13.07
244,12.89
246,12.71
248,12.52
250,12.34
252,12.15
254,11.97
256,11.78
258,11.60
260,11.41
262,11.22
264,11.04
266,10.85
268,10.66
270,10.48
272,10.29
274,10.10
276,9.91
278,9.72
280,9.53
282,9.34
284,9.15
286,8.96
288,8.77
290,8.58
292,8.39
294,8.20
296,8.01
298,7.82
300,7.63
302,7.43
304,7.24
306,7.05
308,6.85
310,6.66
312,6.47
314,6.27
316,6.08
318,5.89
320,5.69
322,5.50
324,5.30
326,5.10
328,4.91
330,4.71
332,4.52
334,4.32
336,4.12
338,3.93
340,3.73
342,3.53
344,3.33
346,3.13
348,2.94
350,2.74
352,2.54
354,2.34
356,2.14
358,1.94
360,1.74
362,1.54
364,1.34
366,1.14
368,0.94
370,0.74
372,0.54
374,0.34
376,0.14
378,-0.07
380,-0.27
382,-0.47
384,-0.67
386,-0.88
388,-1.08
390,-1.28
392,-1.49
394,-1.69
396,-1.89
398,-2.10
400,-2.30
402,-2.51
404,-2.71
406,-2.90
408,-3.02
410,-3.11
412,-3.15
414,-3.16
416,-3.17
418,-3.17
420,-3.17
422,-3.18
424,-3.18
426,-3.18
428,-3.18
430,-3.18
432,-3.18
434,-3.18
436,-3.18
438,-3.18
440,-3.18
442,-3.18
444,-3.18
446,-3.18
448,-3.18
450,-3.18
452,-3.18
454,-3.18
456,-3.18
458,-3.18
460,-3.18
462,-3.18
464,-3.18
466,-3.18
468,-3.18
470,-3.18
472,-3.18
474,-3.18
476,-3.18
478,-3.18
480,-3.18