File: PMMA/Validation_Results/UMET/UMET_Gasification_q50_MLR_R5.csv
Time,MLR
[s],[g/m2/s]
0,0
2,3.87E-09
4,2.13E-06
6,4.71E-05
8,6.36E-04
10,0.006169525
12,0.021166
14,0.021166
16,0.123878
18,0.123878
20,0.436475
22,0.436475
24,1.06501
26,1.06501
28,1.06501
30,2.0664
32,2.0664
34,4.88122
36,4.88122
38,4.88122
40,4.88122
42,4.88122
44,8.09387
46,8.09387
48,8.09387
50,8.09387
52,11.0021
54,11.0021
56,11.0021
58,11.0021
60,13.3084
62,13.3084
64,13.3084
66,13.3084
68,13.3084
70,14.1997
72,14.4989
74,14.798
76,15.0971
78,15.4344
80,15.7475
82,16.0607
84,16.3739
86,16.4741
88,16.7
90,16.9259
92,17.1518
94,17.3777
96,17.6036
98,17.8295
100,18.0554
102,18.2813
104,18.2438
106,18.4174
108,18.591
110,18.7646
112,18.9382
114,19.1118
116,19.2854
118,19.459
120,19.4286
122,19.5568
124,19.685
126,19.8133
128,19.9415
130,20.0698
132,20.198
134,20.3262
136,20.4545
138,20.4571
140,20.56
142,20.6629
144,20.7658
146,20.8688
148,20.9717
150,21.0746
152,21.1775
154,21.2078
156,21.2943
158,21.3808
160,21.4673
162,21.5538
164,21.6403
166,21.7268
168,21.8133
170,21.8998
172,21.9195
174,21.9924
176,22.0652
178,22.138
180,22.2108
182,22.2837
184,22.3565
186,22.4293
188,22.4381
190,22.4962
192,22.5543
194,22.6124
196,22.6705
198,22.7285
200,22.7866
202,22.8447
204,22.9028
206,22.9609
208,23.019
210,23.0771
212,23.1351
214,23.1932
216,23.2513
218,23.3094
220,23.3675
222,23.4256
224,23.4268
226,23.479
228,23.5311
230,23.5832
232,23.6353
234,23.6875
236,23.7396
238,23.7917
240,23.8439
242,23.896
244,23.9481
246,24.0002
248,24.0524
250,24.1045
252,24.1566
254,24.2087
256,24.2609
258,24.2056
260,24.2464
262,24.2871
264,24.3279
266,24.3687
268,24.4094
270,24.4502
272,24.491
274,24.5317
276,24.5725
278,24.6133
280,24.6541
282,24.6948
284,24.7356
286,24.7764
288,24.8171
290,24.8579
292,24.8987
294,24.9394
296,24.9802
298,25.021
300,25.0618
302,25.1025
304,25.1433
306,25.1263
308,25.1626
310,25.1989
312,25.2352
314,25.2715
316,25.3078
318,25.3441
320,25.3804
322,25.4167
324,25.453
326,25.4893
328,25.5256
330,25.5619
332,25.5982
334,25.6345
336,25.6707
338,25.707
340,25.7433
342,25.7796
344,25.8159
346,25.8522
348,25.8885
350,25.9248
352,25.9611
354,25.9343
356,25.9657
358,25.9971
360,26.0286
362,26.06
364,26.0914
366,26.1228
368,26.1542
370,26.1856
372,26.217
374,26.2485
376,26.2799
378,26.3113
380,26.3427
382,26.3741
384,26.4055
386,26.4369
388,26.4683
390,26.4998
392,26.5312
394,26.5626
396,26.594
398,26.6254
400,26.6568
402,26.6892
404,26.7207
406,18.5474
408,13.426
410,8.30454
412,3.18309
414,0.748626
416,0.748626
418,0.348356
420,0.348356
422,0.197518
424,0.197518
426,0.125841
428,0.125841
430,0.0637556
432,0.0637556
434,0.0637556
436,0.0376572
438,0.0376572
440,0.0376572
442,0.0376572
444,0.02463076
446,0.02463076
448,0.02463076
450,0.02463076
452,0.01303647
454,0.01303647
456,0.01303647
458,0.01303647
460,0.01303647
462,0.01303647
464,0.01303647
466,0.01303647
468,0.008113443
470,0.008113443
472,0.008113443
474,0.008113443
476,0.008113443
478,0.008113443
480,0.008113443